 # applied field (T), theta (degree), phi (degree), abs for RE 1-2
     0.00000     0.00000     0.00000     0.07269     0.00000     0.00000     0.07269
     0.10000     0.60689   180.00000     0.07270     0.19816   180.00000     0.07269
     0.20000     1.37333   180.00000     0.07273     0.47467   180.00000     0.07270
     0.30000     1.97900   180.00000     0.07276     0.67265   180.00000     0.07270
     0.40000     2.58357   180.00000     0.07281     0.87048   180.00000     0.07271
     0.50000     3.18672   180.00000     0.07287     1.06810   180.00000     0.07272
     0.60000     3.94653   180.00000     0.07296     1.34363   180.00000     0.07273
     0.70000     4.54526   180.00000     0.07305     1.54061   180.00000     0.07274
     0.80000     5.14148   180.00000     0.07315     1.73722   180.00000     0.07275
     0.90000     5.89122   180.00000     0.07329     2.01126   180.00000     0.07277
     1.00000     6.48068   180.00000     0.07342     2.20688   180.00000     0.07279
     1.10000     7.06662   180.00000     0.07356     2.40199   180.00000     0.07281
     1.20000     7.80224   180.00000     0.07375     2.67390   180.00000     0.07283
     1.30000     8.37925   180.00000     0.07392     2.86768   180.00000     0.07286
     1.40000     8.95181   180.00000     0.07410     3.06079   180.00000     0.07288
     1.50000     9.66960   180.00000     0.07434     3.32995   180.00000     0.07291
     1.60000    10.23127   180.00000     0.07454     3.52139   180.00000     0.07294
     1.70000    10.78767   180.00000     0.07476     3.71201   180.00000     0.07297
     1.80000    11.33857   180.00000     0.07499     3.90179   180.00000     0.07299
     1.90000    12.02808   180.00000     0.07528     4.16646   180.00000     0.07304
     2.00000    12.56588   180.00000     0.07553     4.35414   180.00000     0.07307
     2.10000    13.09751   180.00000     0.07579     4.54083   180.00000     0.07310
     2.20000    13.76222   180.00000     0.07613     4.80140   180.00000     0.07315
     2.30000    14.27936   180.00000     0.07642     4.98569   180.00000     0.07319
     2.40000    14.78976   180.00000     0.07671     5.16884   180.00000     0.07322
     2.50000    15.42741   180.00000     0.07709     5.42477   180.00000     0.07328
     2.60000    15.92220   180.00000     0.07740     5.60524   180.00000     0.07332
     2.70000    16.40981   180.00000     0.07772     5.78445   180.00000     0.07336
     2.80000    17.01863   180.00000     0.07814     6.03521   180.00000     0.07342
     2.90000    17.48976   180.00000     0.07848     6.21145   180.00000     0.07346
     3.00000    17.95337   180.00000     0.07883     6.38632   180.00000     0.07351
     3.10000    18.53203   180.00000     0.07928     6.63143   180.00000     0.07357
     3.20000    18.97855   180.00000     0.07964     6.80307   180.00000     0.07362
     3.30000    19.41732   180.00000     0.08002     6.97323   180.00000     0.07366
     3.40000    19.96491   180.00000     0.08050     7.21223   180.00000     0.07373
     3.50000    20.38618   180.00000     0.08088     7.37891   180.00000     0.07378
     3.60000    20.91196   180.00000     0.08138     7.61342   180.00000     0.07386
     3.70000    21.31557   180.00000     0.08178     7.77648   180.00000     0.07391
     3.80000    21.71127   180.00000     0.08219     7.93788   180.00000     0.07396
     3.90000    22.20528   180.00000     0.08271     8.16558   180.00000     0.07403
     4.00000    22.58324   180.00000     0.08314     8.32315   180.00000     0.07409
     4.10000    22.95330   180.00000     0.08356     8.47897   180.00000     0.07414
     4.20000    23.41555   180.00000     0.08410     8.69950   180.00000     0.07422
     4.30000    23.76794   180.00000     0.08454     8.85130   180.00000     0.07428
     4.40000    24.20837   180.00000     0.08510     9.06666   180.00000     0.07436
     4.50000    24.54324   180.00000     0.08554     9.21431   180.00000     0.07441
     4.60000    24.87034   180.00000     0.08599     9.36008   180.00000     0.07447
     4.70000    25.27959   180.00000     0.08656     9.56774   180.00000     0.07455
     4.80000    25.58944   180.00000     0.08702     9.70920   180.00000     0.07461
     4.90000    25.97746   180.00000     0.08760     9.91136   180.00000     0.07469
     5.00000    26.27031   180.00000     0.08806    10.04842   180.00000     0.07475
     5.10000    26.63746   180.00000     0.08865    10.24496   180.00000     0.07483
     5.20000    26.91359   180.00000     0.08912    10.37752   180.00000     0.07489
     5.30000    27.18235   180.00000     0.08959    10.50806   180.00000     0.07495
     5.40000    27.51995   180.00000     0.09019    10.69631   180.00000     0.07503
     5.50000    27.77245   180.00000     0.09066    10.82225   180.00000     0.07509
     5.60000    28.09012   180.00000     0.09126    11.00464   180.00000     0.07517
     5.70000    28.32670   180.00000     0.09174    11.12590   180.00000     0.07523
     5.80000    28.62488   180.00000     0.09234    11.30235   180.00000     0.07531
     5.90000    28.84591   180.00000     0.09282    11.41888   180.00000     0.07537
     6.00000    29.12505   180.00000     0.09342    11.58932   180.00000     0.07545
     6.10000    29.33088   180.00000     0.09390    11.70105   180.00000     0.07551
     6.20000    29.59146   180.00000     0.09451    11.86542   180.00000     0.07559
     6.30000    29.78247   180.00000     0.09498    11.97233   180.00000     0.07564
     6.40000    30.02494   180.00000     0.09559    12.13058   180.00000     0.07572
     6.50000    30.20151   180.00000     0.09606    12.23262   180.00000     0.07577
     6.60000    30.42635   180.00000     0.09667    12.38472   180.00000     0.07585
     6.70000    30.58885   180.00000     0.09714    12.48186   180.00000     0.07590
     6.80000    30.79653   180.00000     0.09774    12.62777   180.00000     0.07598
     6.90000    30.99493   180.00000     0.09833    12.77022   180.00000     0.07606
     7.00000    31.13633   180.00000     0.09880    12.85969   180.00000     0.07610
     7.10000    31.31829   180.00000     0.09939    12.99592   180.00000     0.07618
     7.20000    31.44656   180.00000     0.09986    13.08045   180.00000     0.07622
     7.30000    31.61254   180.00000     0.10044    13.21045   180.00000     0.07630
     7.40000    31.76987   180.00000     0.10102    13.33697   180.00000     0.07637
     7.50000    31.87848   180.00000     0.10148    13.41380   180.00000     0.07640
     7.60000    32.02052   180.00000     0.10205    13.53409   180.00000     0.07647
     7.70000    32.15429   180.00000     0.10262    13.65091   180.00000     0.07654
     7.80000    32.24408   180.00000     0.10306    13.72004   180.00000     0.07657
     7.90000    32.36321   180.00000     0.10362    13.83065   180.00000     0.07663
     8.00000    32.47443   180.00000     0.10417    13.93780   180.00000     0.07669
     8.10000    32.54618   180.00000     0.10460    13.99925   180.00000     0.07672
     8.20000    32.64339   180.00000     0.10515    14.10022   180.00000     0.07678
     8.30000    32.73302   180.00000     0.10568    14.19775   180.00000     0.07683
     8.40000    32.78751   180.00000     0.10610    14.25157   180.00000     0.07685
     8.50000    32.86371   180.00000     0.10663    14.34296   180.00000     0.07690
     8.60000    32.93267   180.00000     0.10714    14.43094   180.00000     0.07695
     8.70000    32.99448   180.00000     0.10765    14.51553   180.00000     0.07699
     8.80000    33.02668   180.00000     0.10805    14.55908   180.00000     0.07700
     8.90000    33.07581   180.00000     0.10854    14.63761   180.00000     0.07704
     9.00000    33.11808   180.00000     0.10903    14.71277   180.00000     0.07707
     9.10000    33.15361   180.00000     0.10951    14.78459   180.00000     0.07710
     9.20000    33.18248   180.00000     0.10999    14.85309   180.00000     0.07713
     9.30000    33.18824   180.00000     0.11035    14.88387   180.00000     0.07713
     9.40000    33.20528   180.00000     0.11080    14.94642   180.00000     0.07715
     9.50000    33.21592   180.00000     0.11125    15.00569   180.00000     0.07717
     9.60000    33.22025   180.00000     0.11169    15.06169   180.00000     0.07719
     9.70000    33.21835   180.00000     0.11212    15.11444   180.00000     0.07720
     9.80000    33.21031   180.00000     0.11254    15.16396   180.00000     0.07721
     9.90000    33.19621   180.00000     0.11295    15.21027   180.00000     0.07721
    10.00000    33.17612   180.00000     0.11335    15.25338   180.00000     0.07721
    10.10000    33.15013   180.00000     0.11374    15.29331   180.00000     0.07721
    10.20000    33.11830   180.00000     0.11412    15.33009   180.00000     0.07720
    10.30000    33.08071   180.00000     0.11449    15.36374   180.00000     0.07719
    10.40000    33.03742   180.00000     0.11485    15.39427   180.00000     0.07717
    10.50000    32.98851   180.00000     0.11519    15.42170   180.00000     0.07715
    10.60000    32.93403   180.00000     0.11553    15.44606   180.00000     0.07713
    10.70000    32.87406   180.00000     0.11585    15.46737   180.00000     0.07710
    10.80000    32.80865   180.00000     0.11617    15.48564   180.00000     0.07707
    10.90000    32.73786   180.00000     0.11647    15.50090   180.00000     0.07703
    11.00000    32.66174   180.00000     0.11676    15.51316   180.00000     0.07699
    11.10000    32.57777   180.00000     0.11711    15.54550   180.00000     0.07695
    11.20000    32.49024   180.00000     0.11737    15.55127   180.00000     0.07690
    11.30000    32.39756   180.00000     0.11762    15.55411   180.00000     0.07684
    11.40000    32.29978   180.00000     0.11786    15.55405   180.00000     0.07678
    11.50000    32.19694   180.00000     0.11808    15.55112   180.00000     0.07671
    11.60000    32.08176   180.00000     0.11835    15.56538   180.00000     0.07665
    11.70000    31.96807   180.00000     0.11855    15.55619   180.00000     0.07657
    11.80000    31.84945   180.00000     0.11874    15.54419   180.00000     0.07649
    11.90000    31.71587   180.00000     0.11896    15.54770   180.00000     0.07641
    12.00000    31.58669   180.00000     0.11911    15.52961   180.00000     0.07631
    12.10000    31.45273   180.00000     0.11926    15.50877   180.00000     0.07621
    12.20000    31.30123   180.00000     0.11943    15.50181   180.00000     0.07611
    12.30000    31.15696   180.00000     0.11954    15.47503   180.00000     0.07600
    12.40000    30.99344   180.00000     0.11968    15.46102   180.00000     0.07588
    12.50000    30.83903   180.00000     0.11976    15.42840   180.00000     0.07576
    12.60000    30.66367   180.00000     0.11986    15.40748   180.00000     0.07563
    12.70000    30.49928   180.00000     0.11991    15.36914   180.00000     0.07550
    12.80000    30.31226   180.00000     0.11998    15.34143   180.00000     0.07535
    12.90000    30.11901   180.00000     0.12002    15.31010   180.00000     0.07520
    13.00000    29.93948   180.00000     0.12003    15.26309   180.00000     0.07505
    13.10000    29.73481   180.00000     0.12003    15.22517   180.00000     0.07488
    13.20000    29.52403   180.00000     0.12002    15.18371   180.00000     0.07470
    13.30000    29.30718   180.00000     0.11999    15.13875   180.00000     0.07452
    13.40000    29.10765   180.00000     0.11992    15.08042   180.00000     0.07434
    13.50000    28.87964   180.00000     0.11985    15.02914   180.00000     0.07414
    13.60000    28.64566   180.00000     0.11976    14.97445   180.00000     0.07393
    13.70000    28.40574   180.00000     0.11965    14.91641   180.00000     0.07372
    13.80000    28.15991   180.00000     0.11951    14.85504   180.00000     0.07349
    13.90000    27.90819   180.00000     0.11936    14.79038   180.00000     0.07326
    14.00000    27.65060   180.00000     0.11918    14.72246   180.00000     0.07302
    14.10000    27.38717   180.00000     0.11898    14.65131   180.00000     0.07277
    14.20000    27.11792   180.00000     0.11876    14.57697   180.00000     0.07251
    14.30000    26.81186   180.00000     0.11851    14.50476   180.00000     0.07222
    14.40000    26.53020   180.00000     0.11824    14.42363   180.00000     0.07194
    14.50000    26.24276   180.00000     0.11796    14.33941   180.00000     0.07166
    14.60000    25.91598   180.00000     0.11762    14.25592   180.00000     0.07134
    14.70000    25.61623   180.00000     0.11729    14.16511   180.00000     0.07103
    14.80000    25.31075   180.00000     0.11694    14.07129   180.00000     0.07072
    14.90000    24.96339   180.00000     0.11653    13.97686   180.00000     0.07036
    15.00000    24.64565   180.00000     0.11613    13.87664   180.00000     0.07003
    15.10000    24.28432   180.00000     0.11566    13.77492   180.00000     0.06965
    15.20000    23.91556   180.00000     0.11517    13.66937   180.00000     0.06926
    15.30000    23.53936   180.00000     0.11465    13.56002   180.00000     0.06886
    15.40000    23.19633   180.00000     0.11416    13.44692   180.00000     0.06848
    15.50000    22.80616   180.00000     0.11358    13.33056   180.00000     0.06806
    15.60000    22.40856   180.00000     0.11298    13.21050   180.00000     0.06762
    15.70000    22.00349   180.00000     0.11235    13.08678   180.00000     0.06717
    15.80000    21.54671   180.00000     0.11163    12.95760   180.00000     0.06667
    15.90000    21.12576   180.00000     0.11094    12.82620   180.00000     0.06619
    16.00000    20.69729   180.00000     0.11023    12.69123   180.00000     0.06570
    16.10000    20.26125   180.00000     0.10949    12.55270   180.00000     0.06520
    16.20000    19.76965   180.00000     0.10864    12.40705   180.00000     0.06464
    16.30000    19.26847   180.00000     0.10776    12.25701   180.00000     0.06406
    16.40000    18.80766   180.00000     0.10693    12.10711   180.00000     0.06352
    16.50000    18.28815   180.00000     0.10599    11.94883   180.00000     0.06291
    16.60000    17.75883   180.00000     0.10501    11.78624   180.00000     0.06228
    16.70000    17.21961   180.00000     0.10400    11.61935   180.00000     0.06164
    16.80000    16.67037   180.00000     0.10296    11.44819   180.00000     0.06098
    16.90000    16.11099   180.00000     0.10189    11.27275   180.00000     0.06031
    17.00000    15.48493   180.00000     0.10068    11.08599   180.00000     0.05955
    17.10000    14.90369   180.00000     0.09954    10.90160   180.00000     0.05885
    17.20000    14.25305   180.00000     0.09826    10.70502   180.00000     0.05805
    17.30000    13.58913   180.00000     0.09694    10.50331   180.00000     0.05724
    17.40000    12.91160   180.00000     0.09559    10.29645   180.00000     0.05641
    17.50000    12.22009   180.00000     0.09420    10.08440   180.00000     0.05556
    17.60000    11.45011   180.00000     0.09265     9.85750   180.00000     0.05461
    17.70000    10.72799   180.00000     0.09120     9.63453   180.00000     0.05372
    17.80000     9.92334   180.00000     0.08957     9.39572   180.00000     0.05273
    17.90000     9.09950   180.00000     0.08791     9.15061   180.00000     0.05171
    18.00000     8.18492   180.00000     0.08607     8.88769   180.00000     0.05059
    18.10000     7.31814   180.00000     0.08433     8.62916   180.00000     0.04953
    18.20000     6.35442   180.00000     0.08241     8.35158   180.00000     0.04835
    18.30000     5.36281   180.00000     0.08046     8.06612   180.00000     0.04715
    18.40000     4.26188   180.00000     0.07831     7.75921   180.00000     0.04583
    18.50000     3.12353   180.00000     0.07612     7.44278   180.00000     0.04448
    18.60000     1.85889   180.00000     0.07373     7.10200   180.00000     0.04300
    18.70000     0.54285   180.00000     0.07130     6.74950   180.00000     0.04149
    18.80000     0.83002   360.00000     0.06883     6.38445   180.00000     0.03994
    18.90000     2.46296   360.00000     0.06598     5.97347   180.00000     0.03815
    19.00000     4.18889   360.00000     0.06309     5.54472   180.00000     0.03632
    19.10000     6.13334   360.00000     0.05999     5.07828   180.00000     0.03433
    19.20000     8.33876   360.00000     0.05668     4.56843   180.00000     0.03219
    19.30000    10.86275   360.00000     0.05317     4.00733   180.00000     0.02989
    19.40000    14.08262   360.00000     0.04908     3.34023   180.00000     0.02718
    19.50000    17.89843   360.00000     0.04483     2.58448   180.00000     0.02429
    19.60000    23.13572   360.00000     0.03990     1.62177   180.00000     0.02083
    19.70000    31.10615   360.00000     0.03410     0.25287   180.00000     0.01653
    19.80000    46.71030   360.00000     0.02690     2.48432   360.00000     0.01043
    19.90000    90.00000   360.00000     0.02090    90.00000   360.00000     0.00083
    20.00000    90.00000   360.00000     0.02098    90.00000   360.00000     0.00093
    20.10000    90.00000   360.00000     0.02107    90.00000   360.00000     0.00102
    20.20000    90.00000   360.00000     0.02116    90.00000   360.00000     0.00112
    20.30000    90.00000   360.00000     0.02125    90.00000   360.00000     0.00122
    20.40000    90.00000   360.00000     0.02134    90.00000   360.00000     0.00132
    20.50000    90.00000   360.00000     0.02143    90.00000   360.00000     0.00141
    20.60000    90.00000   360.00000     0.02152    90.00000   360.00000     0.00151
    20.70000    90.00000   360.00000     0.02161    90.00000   360.00000     0.00161
    20.80000    90.00000   360.00000     0.02170    90.00000   360.00000     0.00170
    20.90000    90.00000   360.00000     0.02179    90.00000   360.00000     0.00180
    21.00000    90.00000   360.00000     0.02188    90.00000   360.00000     0.00190
    21.10000    90.00000   360.00000     0.02197    90.00000   360.00000     0.00199
    21.20000    90.00000   360.00000     0.02206    90.00000   360.00000     0.00209
    21.30000    90.00000   360.00000     0.02215    90.00000   360.00000     0.00219
    21.40000    90.00000   360.00000     0.02224    90.00000   360.00000     0.00229
    21.50000    90.00000   360.00000     0.02233    90.00000   360.00000     0.00238
    21.60000    90.00000   360.00000     0.02242    90.00000   360.00000     0.00248
    21.70000    90.00000   360.00000     0.02251    90.00000   360.00000     0.00258
    21.80000    90.00000   360.00000     0.02259    90.00000   360.00000     0.00267
    21.90000    90.00000   360.00000     0.02268    90.00000   360.00000     0.00277
    22.00000    90.00000   360.00000     0.02277    90.00000   360.00000     0.00287
    22.10000    90.00000   360.00000     0.02286    90.00000   360.00000     0.00296
    22.20000    90.00000   360.00000     0.02295    90.00000   360.00000     0.00306
    22.30000    90.00000   360.00000     0.02304    90.00000   360.00000     0.00316
    22.40000    90.00000   360.00000     0.02313    90.00000   360.00000     0.00325
    22.50000    90.00000   360.00000     0.02322    90.00000   360.00000     0.00335
    22.60000    90.00000   360.00000     0.02331    90.00000   360.00000     0.00345
    22.70000    90.00000   360.00000     0.02340    90.00000   360.00000     0.00354
    22.80000    90.00000   360.00000     0.02349    90.00000   360.00000     0.00364
    22.90000    90.00000   360.00000     0.02358    90.00000   360.00000     0.00374
    23.00000    90.00000   360.00000     0.02367    90.00000   360.00000     0.00384
    23.10000    90.00000   360.00000     0.02376    90.00000   360.00000     0.00393
    23.20000    90.00000   360.00000     0.02385    90.00000   360.00000     0.00403
    23.30000    90.00000   360.00000     0.02393    90.00000   360.00000     0.00413
    23.40000    90.00000   360.00000     0.02402    90.00000   360.00000     0.00422
    23.50000    90.00000   360.00000     0.02411    90.00000   360.00000     0.00432
    23.60000    90.00000   360.00000     0.02420    90.00000   360.00000     0.00442
    23.70000    90.00000   360.00000     0.02429    90.00000   360.00000     0.00451
    23.80000    90.00000   360.00000     0.02438    90.00000   360.00000     0.00461
    23.90000    90.00000   360.00000     0.02447    90.00000   360.00000     0.00471
    24.00000    90.00000   360.00000     0.02456    90.00000   360.00000     0.00480
    24.10000    90.00000   360.00000     0.02465    90.00000   360.00000     0.00490
    24.20000    90.00000   360.00000     0.02474    90.00000   360.00000     0.00500
    24.30000    90.00000   360.00000     0.02483    90.00000   360.00000     0.00509
    24.40000    90.00000   360.00000     0.02492    90.00000   360.00000     0.00519
    24.50000    90.00000   360.00000     0.02500    90.00000   360.00000     0.00528
    24.60000    90.00000   360.00000     0.02509    90.00000   360.00000     0.00538
    24.70000    90.00000   360.00000     0.02518    90.00000   360.00000     0.00548
    24.80000    90.00000   360.00000     0.02527    90.00000   360.00000     0.00557
    24.90000    90.00000   360.00000     0.02536    90.00000   360.00000     0.00567
    25.00000    90.00000   360.00000     0.02545    90.00000   360.00000     0.00577
    25.10000    90.00000   360.00000     0.02554    90.00000   360.00000     0.00586
    25.20000    90.00000   360.00000     0.02563    90.00000   360.00000     0.00596
    25.30000    90.00000   360.00000     0.02572    90.00000   360.00000     0.00606
    25.40000    90.00000   360.00000     0.02581    90.00000   360.00000     0.00615
    25.50000    90.00000   360.00000     0.02590    90.00000   360.00000     0.00625
    25.60000    90.00000   360.00000     0.02598    90.00000   360.00000     0.00635
    25.70000    90.00000   360.00000     0.02607    90.00000   360.00000     0.00644
    25.80000    90.00000   360.00000     0.02616    90.00000   360.00000     0.00654
    25.90000    90.00000   360.00000     0.02625    90.00000   360.00000     0.00664
    26.00000    90.00000   360.00000     0.02634    90.00000   360.00000     0.00673
    26.10000    90.00000   360.00000     0.02643    90.00000   360.00000     0.00683
    26.20000    90.00000   360.00000     0.02652    90.00000   360.00000     0.00692
    26.30000    90.00000   360.00000     0.02661    90.00000   360.00000     0.00702
    26.40000    90.00000   360.00000     0.02670    90.00000   360.00000     0.00712
    26.50000    90.00000   360.00000     0.02679    90.00000   360.00000     0.00721
    26.60000    90.00000   360.00000     0.02687    90.00000   360.00000     0.00731
    26.70000    90.00000   360.00000     0.02696    90.00000   360.00000     0.00741
    26.80000    90.00000   360.00000     0.02705    90.00000   360.00000     0.00750
    26.90000    90.00000   360.00000     0.02714    90.00000   360.00000     0.00760
    27.00000    90.00000   360.00000     0.02723    90.00000   360.00000     0.00769
    27.10000    90.00000   360.00000     0.02732    90.00000   360.00000     0.00779
    27.20000    90.00000   360.00000     0.02741    90.00000   360.00000     0.00789
    27.30000    90.00000   360.00000     0.02750    90.00000   360.00000     0.00798
    27.40000    90.00000   360.00000     0.02759    90.00000   360.00000     0.00808
    27.50000    90.00000   360.00000     0.02767    90.00000   360.00000     0.00818
    27.60000    90.00000   360.00000     0.02776    90.00000   360.00000     0.00827
    27.70000    90.00000   360.00000     0.02785    90.00000   360.00000     0.00837
    27.80000    90.00000   360.00000     0.02794    90.00000   360.00000     0.00846
    27.90000    90.00000   360.00000     0.02803    90.00000   360.00000     0.00856
    28.00000    90.00000   360.00000     0.02812    90.00000   360.00000     0.00866
    28.10000    90.00000   360.00000     0.02821    90.00000   360.00000     0.00875
    28.20000    90.00000   360.00000     0.02830    90.00000   360.00000     0.00885
    28.30000    90.00000   360.00000     0.02839    90.00000   360.00000     0.00894
    28.40000    90.00000   360.00000     0.02847    90.00000   360.00000     0.00904
    28.50000    90.00000   360.00000     0.02856    90.00000   360.00000     0.00914
    28.60000    90.00000   360.00000     0.02865    90.00000   360.00000     0.00923
    28.70000    90.00000   360.00000     0.02874    90.00000   360.00000     0.00933
    28.80000    90.00000   360.00000     0.02883    90.00000   360.00000     0.00943
    28.90000    90.00000   360.00000     0.02892    90.00000   360.00000     0.00952
    29.00000    90.00000   360.00000     0.02901    90.00000   360.00000     0.00962
    29.10000    90.00000   360.00000     0.02910    90.00000   360.00000     0.00971
    29.20000    90.00000   360.00000     0.02918    90.00000   360.00000     0.00981
    29.30000    90.00000   360.00000     0.02927    90.00000   360.00000     0.00991
    29.40000    90.00000   360.00000     0.02936    90.00000   360.00000     0.01000
    29.50000    90.00000   360.00000     0.02945    90.00000   360.00000     0.01010
    29.60000    90.00000   360.00000     0.02954    90.00000   360.00000     0.01019
    29.70000    90.00000   360.00000     0.02963    90.00000   360.00000     0.01029
    29.80000    90.00000   360.00000     0.02972    90.00000   360.00000     0.01038
    29.90000    90.00000   360.00000     0.02981    90.00000   360.00000     0.01048
    30.00000    90.00000   360.00000     0.02989    90.00000   360.00000     0.01058
    30.10000    90.00000   360.00000     0.02998    90.00000   360.00000     0.01067
    30.20000    90.00000   360.00000     0.03007    90.00000   360.00000     0.01077
    30.30000    90.00000   360.00000     0.03016    90.00000   360.00000     0.01086
    30.40000    90.00000   360.00000     0.03025    90.00000   360.00000     0.01096
    30.50000    90.00000   360.00000     0.03034    90.00000   360.00000     0.01106
    30.60000    90.00000   360.00000     0.03043    90.00000   360.00000     0.01115
    30.70000    90.00000   360.00000     0.03051    90.00000   360.00000     0.01125
    30.80000    90.00000   360.00000     0.03060    90.00000   360.00000     0.01134
    30.90000    90.00000   360.00000     0.03069    90.00000   360.00000     0.01144
    31.00000    90.00000   360.00000     0.03078    90.00000   360.00000     0.01153
    31.10000    90.00000   360.00000     0.03087    90.00000   360.00000     0.01163
    31.20000    90.00000   360.00000     0.03096    90.00000   360.00000     0.01173
    31.30000    90.00000   360.00000     0.03105    90.00000   360.00000     0.01182
    31.40000    90.00000   360.00000     0.03113    90.00000   360.00000     0.01192
    31.50000    90.00000   360.00000     0.03122    90.00000   360.00000     0.01201
    31.60000    90.00000   360.00000     0.03131    90.00000   360.00000     0.01211
    31.70000    90.00000   360.00000     0.03140    90.00000   360.00000     0.01220
    31.80000    90.00000   360.00000     0.03149    90.00000   360.00000     0.01230
    31.90000    90.00000   360.00000     0.03158    90.00000   360.00000     0.01240
    32.00000    90.00000   360.00000     0.03167    90.00000   360.00000     0.01249
    32.10000    90.00000   360.00000     0.03175    90.00000   360.00000     0.01259
    32.20000    90.00000   360.00000     0.03184    90.00000   360.00000     0.01268
    32.30000    90.00000   360.00000     0.03193    90.00000   360.00000     0.01278
    32.40000    90.00000   360.00000     0.03202    90.00000   360.00000     0.01287
    32.50000    90.00000   360.00000     0.03211    90.00000   360.00000     0.01297
    32.60000    90.00000   360.00000     0.03220    90.00000   360.00000     0.01306
    32.70000    90.00000   360.00000     0.03228    90.00000   360.00000     0.01316
    32.80000    90.00000   360.00000     0.03237    90.00000   360.00000     0.01326
    32.90000    90.00000   360.00000     0.03246    90.00000   360.00000     0.01335
    33.00000    90.00000   360.00000     0.03255    90.00000   360.00000     0.01345
    33.10000    90.00000   360.00000     0.03264    90.00000   360.00000     0.01354
    33.20000    90.00000   360.00000     0.03273    90.00000   360.00000     0.01364
    33.30000    90.00000   360.00000     0.03282    90.00000   360.00000     0.01373
    33.40000    90.00000   360.00000     0.03290    90.00000   360.00000     0.01383
    33.50000    90.00000   360.00000     0.03299    90.00000   360.00000     0.01392
    33.60000    90.00000   360.00000     0.03308    90.00000   360.00000     0.01402
    33.70000    90.00000   360.00000     0.03317    90.00000   360.00000     0.01412
    33.80000    90.00000   360.00000     0.03326    90.00000   360.00000     0.01421
    33.90000    90.00000   360.00000     0.03335    90.00000   360.00000     0.01431
    34.00000    90.00000   360.00000     0.03343    90.00000   360.00000     0.01440
    34.10000    90.00000   360.00000     0.03352    90.00000   360.00000     0.01450
    34.20000    90.00000   360.00000     0.03361    90.00000   360.00000     0.01459
    34.30000    90.00000   360.00000     0.03370    90.00000   360.00000     0.01469
    34.40000    90.00000   360.00000     0.03379    90.00000   360.00000     0.01478
    34.50000    90.00000   360.00000     0.03388    90.00000   360.00000     0.01488
    34.60000    90.00000   360.00000     0.03396    90.00000   360.00000     0.01497
    34.70000    90.00000   360.00000     0.03405    90.00000   360.00000     0.01507
    34.80000    90.00000   360.00000     0.03414    90.00000   360.00000     0.01516
    34.90000    90.00000   360.00000     0.03423    90.00000   360.00000     0.01526
    35.00000    90.00000   360.00000     0.03432    90.00000   360.00000     0.01535
    35.10000    90.00000   360.00000     0.03441    90.00000   360.00000     0.01545
    35.20000    90.00000   360.00000     0.03449    90.00000   360.00000     0.01555
    35.30000    90.00000   360.00000     0.03458    90.00000   360.00000     0.01564
    35.40000    90.00000   360.00000     0.03467    90.00000   360.00000     0.01574
    35.50000    90.00000   360.00000     0.03476    90.00000   360.00000     0.01583
    35.60000    90.00000   360.00000     0.03485    90.00000   360.00000     0.01593
    35.70000    90.00000   360.00000     0.03493    90.00000   360.00000     0.01602
    35.80000    90.00000   360.00000     0.03502    90.00000   360.00000     0.01612
    35.90000    90.00000   360.00000     0.03511    90.00000   360.00000     0.01621
    36.00000    90.00000   360.00000     0.03520    90.00000   360.00000     0.01631
    36.10000    90.00000   360.00000     0.03529    90.00000   360.00000     0.01640
    36.20000    90.00000   360.00000     0.03538    90.00000   360.00000     0.01650
    36.30000    90.00000   360.00000     0.03546    90.00000   360.00000     0.01659
    36.40000    90.00000   360.00000     0.03555    90.00000   360.00000     0.01669
    36.50000    90.00000   360.00000     0.03564    90.00000   360.00000     0.01678
    36.60000    90.00000   360.00000     0.03573    90.00000   360.00000     0.01688
    36.70000    90.00000   360.00000     0.03582    90.00000   360.00000     0.01697
    36.80000    90.00000   360.00000     0.03590    90.00000   360.00000     0.01707
    36.90000    90.00000   360.00000     0.03599    90.00000   360.00000     0.01716
    37.00000    90.00000   360.00000     0.03608    90.00000   360.00000     0.01726
    37.10000    90.00000   360.00000     0.03617    90.00000   360.00000     0.01735
    37.20000    90.00000   360.00000     0.03626    90.00000   360.00000     0.01745
    37.30000    90.00000   360.00000     0.03634    90.00000   360.00000     0.01754
    37.40000    90.00000   360.00000     0.03643    90.00000   360.00000     0.01764
    37.50000    90.00000   360.00000     0.03652    90.00000   360.00000     0.01773
    37.60000    90.00000   360.00000     0.03661    90.00000   360.00000     0.01783
    37.70000    90.00000   360.00000     0.03670    90.00000   360.00000     0.01792
    37.80000    90.00000   360.00000     0.03678    90.00000   360.00000     0.01802
    37.90000    90.00000   360.00000     0.03687    90.00000   360.00000     0.01811
    38.00000    90.00000   360.00000     0.03696    90.00000   360.00000     0.01821
    38.10000    90.00000   360.00000     0.03705    90.00000   360.00000     0.01830
    38.20000    90.00000   360.00000     0.03714    90.00000   360.00000     0.01840
    38.30000    90.00000   360.00000     0.03722    90.00000   360.00000     0.01849
    38.40000    90.00000   360.00000     0.03731    90.00000   360.00000     0.01859
    38.50000    90.00000   360.00000     0.03740    90.00000   360.00000     0.01868
    38.60000    90.00000   360.00000     0.03749    90.00000   360.00000     0.01878
    38.70000    90.00000   360.00000     0.03758    90.00000   360.00000     0.01887
    38.80000    90.00000   360.00000     0.03766    90.00000   360.00000     0.01897
    38.90000    90.00000   360.00000     0.03775    90.00000   360.00000     0.01906
    39.00000    90.00000   360.00000     0.03784    90.00000   360.00000     0.01916
    39.10000    90.00000   360.00000     0.03793    90.00000   360.00000     0.01925
    39.20000    90.00000   360.00000     0.03802    90.00000   360.00000     0.01935
    39.30000    90.00000   360.00000     0.03810    90.00000   360.00000     0.01944
    39.40000    90.00000   360.00000     0.03819    90.00000   360.00000     0.01953
    39.50000    90.00000   360.00000     0.03828    90.00000   360.00000     0.01963
    39.60000    90.00000   360.00000     0.03837    90.00000   360.00000     0.01972
    39.70000    90.00000   360.00000     0.03846    90.00000   360.00000     0.01982
    39.80000    90.00000   360.00000     0.03854    90.00000   360.00000     0.01991
    39.90000    90.00000   360.00000     0.03863    90.00000   360.00000     0.02001
    40.00000    90.00000   360.00000     0.03872    90.00000   360.00000     0.02010
