 # applied field (T), theta (degree), phi (degree), abs for RE 1-2
     0.00000    90.00000   225.42310     4.37964    90.00000   225.42310     4.37964
     0.10000    90.25421   224.57690     4.37963    90.25421   224.57690     4.37963
     0.20000    90.50844   225.42310     4.37962    90.50844   225.42310     4.37962
     0.30000    90.76271   224.57690     4.37960    90.76271   224.57690     4.37960
     0.40000    91.01701   225.42310     4.37958    91.01701   225.42310     4.37958
     0.50000    91.22894   225.42310     4.37955    91.22894   225.42310     4.37955
     0.60000    91.48337   225.42311     4.37951    91.48337   225.42311     4.37951
     0.70000    91.73789   224.57689     4.37946    91.73789   224.57689     4.37946
     0.80000    91.99252   224.57689     4.37940    91.99252   224.57689     4.37940
     0.90000    92.24726   224.57689     4.37934    92.24726   224.57689     4.37934
     1.00000    92.50214   224.57688     4.37927    92.50214   224.57688     4.37927
     1.10000    92.75716   224.57688     4.37919    92.75716   224.57688     4.37919
     1.20000    93.01235   225.42312     4.37910    93.01235   225.42312     4.37910
     1.30000    93.26773   224.57687     4.37901    93.26773   224.57687     4.37901
     1.40000    93.52330   225.42313     4.37891    93.52330   225.42313     4.37891
     1.50000    93.73640   224.57686     4.37881    93.73640   224.57686     4.37881
     1.60000    93.99237   224.57686     4.37870    93.99237   224.57686     4.37870
     1.70000    94.24858   224.57685     4.37858    94.24858   224.57685     4.37858
     1.80000    94.50504   225.42315     4.37844    94.50504   225.42315     4.37844
     1.90000    94.76178   225.42316     4.37831    94.76178   225.42316     4.37831
     2.00000    95.01879   225.00000     4.37816    95.01879   225.00000     4.37816
     2.10000    95.27611   225.00000     4.37801    95.27611   225.00000     4.37801
     2.20000    95.53375   225.00000     4.37785    95.53375   225.00000     4.37785
     2.30000    95.79172   225.00000     4.37768    95.79172   225.00000     4.37768
     2.40000    96.05004   225.00000     4.37750    96.05004   225.00000     4.37750
     2.50000    96.30873   225.00000     4.37732    96.30873   225.00000     4.37732
     2.60000    96.56779   225.00000     4.37713    96.56779   225.00000     4.37713
     2.70000    96.82725   225.00000     4.37693    96.82725   225.00000     4.37693
     2.80000    97.08712   225.00000     4.37673    97.08712   225.00000     4.37673
     2.90000    97.34742   225.00000     4.37651    97.34742   225.00000     4.37651
     3.00000    97.60816   225.00000     4.37630    97.60816   225.00000     4.37630
     3.10000    97.91297   224.56852     4.37603    97.91297   224.56852     4.37603
     3.20000    98.17472   225.43149     4.37579    98.17472   225.43149     4.37579
     3.30000    98.43696   224.56850     4.37555    98.43696   224.56850     4.37555
     3.40000    98.69972   224.56849     4.37530    98.69972   224.56849     4.37530
     3.50000    98.96300   225.43152     4.37504    98.96300   225.43152     4.37504
     3.60000    99.22682   224.56846     4.37478    99.22682   224.56846     4.37478
     3.70000    99.53532   224.56845     4.37447    99.53532   224.56845     4.37447
     3.80000    99.84459   225.00000     4.37414    99.84459   225.00000     4.37414
     3.90000   100.06599   225.00000     4.37390   100.06599   225.00000     4.37390
     4.00000   100.33224   225.00000     4.37361   100.33224   225.00000     4.37361
     4.10000   100.64365   225.00000     4.37326   100.64365   225.00000     4.37326
     4.20000   100.91126   225.00000     4.37295   100.91126   225.00000     4.37295
     4.30000   101.17954   225.00000     4.37264   101.17954   225.00000     4.37264
     4.40000   101.49338   225.00000     4.37226   101.49338   225.00000     4.37226
     4.50000   101.76315   224.55978     4.37193   101.76315   224.55978     4.37193
     4.60000   102.07875   224.55976     4.37154   102.07875   224.55976     4.37154
     4.70000   102.35007   224.55974     4.37120   102.35007   224.55974     4.37120
     4.80000   102.66753   224.55972     4.37079   102.66753   224.55972     4.37079
     4.90000   102.94048   225.44029     4.37043   102.94048   225.44029     4.37043
     5.00000   103.25986   225.00000     4.37001   103.25986   225.00000     4.37001
     5.10000   103.53452   225.00000     4.36964   103.53452   225.00000     4.36964
     5.20000   103.85596   225.00000     4.36920   103.85596   225.00000     4.36920
     5.30000   104.17852   225.00000     4.36875   104.17852   225.00000     4.36875
     5.40000   104.45595   225.00000     4.36836   104.45595   225.00000     4.36836
     5.50000   104.78071   224.55068     4.36790   104.78071   224.55068     4.36790
     5.60000   105.10665   225.44935     4.36743   105.10665   225.44935     4.36743
     5.70000   105.43381   225.44937     4.36695   105.43381   225.44937     4.36695
     5.80000   105.76223   224.55060     4.36647   105.76223   224.55060     4.36647
     5.90000   106.09190   225.00000     4.36598   106.09190   225.00000     4.36598
     6.00000   106.42289   225.00000     4.36548   106.42289   225.00000     4.36548
     6.10000   106.75521   225.00000     4.36497   106.75521   225.00000     4.36497
     6.20000   107.04116   225.00000     4.36453   107.04116   225.00000     4.36453
     6.30000   107.47188   225.45881     4.36387   107.47188   225.45881     4.36387
     6.40000   107.80851   224.54116     4.36334   107.80851   224.54116     4.36334
     6.50000   108.24330   225.00000     4.36266   108.24330   225.00000     4.36266
     6.60000   108.53462   225.00000     4.36219   108.53462   225.00000     4.36219
     6.70000   108.92461   225.00000     4.36157   108.92461   225.00000     4.36157
     6.80000   109.26750   225.00000     4.36102   109.26750   225.00000     4.36102
     6.90000   109.66121   225.46868     4.36038   109.66121   225.46868     4.36038
     7.00000   110.05690   224.53128     4.35974   110.05690   224.53128     4.35974
     7.10000   110.50440   225.00000     4.35901   110.50440   225.00000     4.35901
     7.20000   110.85440   225.00000     4.35844   110.85440   225.00000     4.35844
     7.30000   111.30662   225.00000     4.35770   111.30662   225.00000     4.35770
     7.40000   111.71095   224.52103     4.35703   111.71095   224.52103     4.35703
     7.50000   112.16829   224.52098     4.35628   112.16829   224.52098     4.35628
     7.60000   112.57717   225.00000     4.35561   112.57717   225.00000     4.35561
     7.70000   113.03976   225.00000     4.35485   113.03976   225.00000     4.35485
     7.80000   113.55701   225.00000     4.35400   113.55701   225.00000     4.35400
     7.90000   114.02564   225.48977     4.35323   114.02564   225.48977     4.35323
     8.00000   114.60211   225.00000     4.35229   114.60211   225.00000     4.35229
     8.10000   115.07715   225.00000     4.35152   115.07715   225.00000     4.35152
     8.20000   115.50196   225.00000     4.35083   115.50196   225.00000     4.35083
     8.30000   116.14324   224.49897     4.34981   116.14324   224.49897     4.34981
     8.40000   116.73570   225.00000     4.34887   116.73570   225.00000     4.34887
     8.50000   117.38709   225.00000     4.34786   117.38709   225.00000     4.34786
     8.60000   117.98899   224.48720     4.34692   117.98899   224.48720     4.34692
     8.70000   118.70587   225.00000     4.34584   118.70587   225.00000     4.34584
     8.80000   119.42909   225.52506     4.34476   119.42909   225.52506     4.34476
     8.90000   120.21477   225.00000     4.34362   120.21477   225.00000     4.34362
     9.00000   121.06454   225.00000     4.34242   121.06454   225.00000     4.34242
     9.10000   121.97991   225.00000     4.34116   121.97991   225.00000     4.34116
     9.20000   122.84647   225.00000     4.34002   122.84647   225.00000     4.34002
     9.30000   124.13123   225.00000     4.33840   124.13123   225.00000     4.33840
     9.40000   125.49195   225.00000     4.33681   125.49195   225.00000     4.33681
     9.50000   127.23178   225.00000     4.33494   127.23178   225.00000     4.33494
     9.60000   129.61095   225.00000     4.33271   129.61095   225.00000     4.33271
     9.70000   162.51893   225.00000     4.32343   162.51893   225.00000     4.32343
     9.80000   166.22522   225.00000     4.32259   166.22522   225.00000     4.32259
     9.90000   170.01707   225.00000     4.32177   170.01707   225.00000     4.32177
    10.00000   174.96589   225.00000     4.32096   174.96589   225.00000     4.32096
    10.10000   180.00000   180.00000     4.32062   180.00000   180.00000     4.32062
    10.20000   180.00000   360.00000     4.32058   180.00000   360.00000     4.32058
    10.30000   180.00000   180.00000     4.32053   180.00000   180.00000     4.32053
    10.40000   180.00000   180.00000     4.32048   180.00000   180.00000     4.32048
    10.50000   180.00000   360.00000     4.32043   180.00000   360.00000     4.32043
    10.60000   180.00000   360.00000     4.32038   180.00000   360.00000     4.32038
    10.70000   180.00000   180.00000     4.32034   180.00000   180.00000     4.32034
    10.80000   180.00000   180.00000     4.32029   180.00000   180.00000     4.32029
    10.90000   180.00000   360.00000     4.32024   180.00000   360.00000     4.32024
    11.00000   180.00000   360.00000     4.32019   180.00000   360.00000     4.32019
    11.10000   180.00000   360.00000     4.32014   180.00000   360.00000     4.32014
    11.20000   180.00000   360.00000     4.32009   180.00000   360.00000     4.32009
    11.30000   180.00000   180.00000     4.32005   180.00000   180.00000     4.32005
    11.40000   180.00000   180.00000     4.32000   180.00000   180.00000     4.32000
    11.50000   180.00000   180.00000     4.31995   180.00000   180.00000     4.31995
    11.60000   180.00000   180.00000     4.31990   180.00000   180.00000     4.31990
    11.70000   180.00000   180.00000     4.31985   180.00000   180.00000     4.31985
    11.80000   180.00000   360.00000     4.31980   180.00000   360.00000     4.31980
    11.90000   180.00000   180.00000     4.31976   180.00000   180.00000     4.31976
    12.00000   180.00000   360.00000     4.31971   180.00000   360.00000     4.31971
    12.10000   180.00000   180.00000     4.31966   180.00000   180.00000     4.31966
    12.20000   180.00000   360.00000     4.31961   180.00000   360.00000     4.31961
    12.30000   180.00000   360.00000     4.31956   180.00000   360.00000     4.31956
    12.40000   180.00000   180.00000     4.31951   180.00000   180.00000     4.31951
    12.50000   180.00000   180.00000     4.31947   180.00000   180.00000     4.31947
    12.60000   180.00000   180.00000     4.31942   180.00000   180.00000     4.31942
    12.70000   180.00000   360.00000     4.31937   180.00000   360.00000     4.31937
    12.80000   180.00000   180.00000     4.31932   180.00000   180.00000     4.31932
    12.90000   180.00000   180.00000     4.31927   180.00000   180.00000     4.31927
    13.00000   180.00000   360.00000     4.31922   180.00000   360.00000     4.31922
    13.10000   180.00000   180.00000     4.31918   180.00000   180.00000     4.31918
    13.20000   180.00000   360.00000     4.31913   180.00000   360.00000     4.31913
    13.30000   180.00000   180.00000     4.31908   180.00000   180.00000     4.31908
    13.40000   180.00000   360.00000     4.31903   180.00000   360.00000     4.31903
    13.50000   180.00000   180.00000     4.31898   180.00000   180.00000     4.31898
    13.60000   180.00000   360.00000     4.31893   180.00000   360.00000     4.31893
    13.70000   180.00000   360.00000     4.31889   180.00000   360.00000     4.31889
    13.80000   180.00000   360.00000     4.31884   180.00000   360.00000     4.31884
    13.90000   180.00000   180.00000     4.31879   180.00000   180.00000     4.31879
    14.00000   180.00000   180.00000     4.31874   180.00000   180.00000     4.31874
    14.10000   180.00000   360.00000     4.31869   180.00000   360.00000     4.31869
    14.20000   180.00000   360.00000     4.31864   180.00000   360.00000     4.31864
    14.30000   180.00000   180.00000     4.31859   180.00000   180.00000     4.31859
    14.40000   180.00000   360.00000     4.31855   180.00000   360.00000     4.31855
    14.50000   180.00000   180.00000     4.31850   180.00000   180.00000     4.31850
    14.60000   180.00000   180.00000     4.31845   180.00000   180.00000     4.31845
    14.70000   180.00000   360.00000     4.31840   180.00000   360.00000     4.31840
    14.80000   180.00000   360.00000     4.31835   180.00000   360.00000     4.31835
    14.90000   180.00000   180.00000     4.31830   180.00000   180.00000     4.31830
    15.00000   180.00000   360.00000     4.31826   180.00000   360.00000     4.31826
    15.10000   180.00000   180.00000     4.31821   180.00000   180.00000     4.31821
    15.20000   180.00000   360.00000     4.31816   180.00000   360.00000     4.31816
    15.30000   180.00000   360.00000     4.31811   180.00000   360.00000     4.31811
    15.40000   180.00000   360.00000     4.31806   180.00000   360.00000     4.31806
    15.50000   180.00000   360.00000     4.31801   180.00000   360.00000     4.31801
    15.60000   180.00000   360.00000     4.31796   180.00000   360.00000     4.31796
    15.70000   180.00000   360.00000     4.31792   180.00000   360.00000     4.31792
    15.80000   180.00000   180.00000     4.31787   180.00000   180.00000     4.31787
    15.90000   180.00000   360.00000     4.31782   180.00000   360.00000     4.31782
    16.00000   180.00000   360.00000     4.31777   180.00000   360.00000     4.31777
    16.10000   180.00000   360.00000     4.31772   180.00000   360.00000     4.31772
    16.20000   180.00000   180.00000     4.31767   180.00000   180.00000     4.31767
    16.30000   180.00000   360.00000     4.31762   180.00000   360.00000     4.31762
    16.40000   180.00000   180.00000     4.31758   180.00000   180.00000     4.31758
    16.50000   180.00000   360.00000     4.31753   180.00000   360.00000     4.31753
    16.60000   180.00000   360.00000     4.31748   180.00000   360.00000     4.31748
    16.70000   180.00000   180.00000     4.31743   180.00000   180.00000     4.31743
    16.80000   180.00000   360.00000     4.31738   180.00000   360.00000     4.31738
    16.90000   180.00000   180.00000     4.31733   180.00000   180.00000     4.31733
    17.00000   180.00000   180.00000     4.31728   180.00000   180.00000     4.31728
    17.10000   180.00000   360.00000     4.31724   180.00000   360.00000     4.31724
    17.20000   180.00000   180.00000     4.31719   180.00000   180.00000     4.31719
    17.30000   180.00000   360.00000     4.31714   180.00000   360.00000     4.31714
    17.40000   180.00000   360.00000     4.31709   180.00000   360.00000     4.31709
    17.50000   180.00000   360.00000     4.31704   180.00000   360.00000     4.31704
    17.60000   180.00000   360.00000     4.31699   180.00000   360.00000     4.31699
    17.70000   180.00000   180.00000     4.31694   180.00000   180.00000     4.31694
    17.80000   180.00000   360.00000     4.31689   180.00000   360.00000     4.31689
    17.90000   180.00000   180.00000     4.31685   180.00000   180.00000     4.31685
    18.00000   180.00000   180.00000     4.31680   180.00000   180.00000     4.31680
    18.10000   180.00000   360.00000     4.31675   180.00000   360.00000     4.31675
    18.20000   180.00000   180.00000     4.31670   180.00000   180.00000     4.31670
    18.30000   180.00000   360.00000     4.31665   180.00000   360.00000     4.31665
    18.40000   180.00000   180.00000     4.31660   180.00000   180.00000     4.31660
    18.50000   180.00000   360.00000     4.31655   180.00000   360.00000     4.31655
    18.60000   180.00000   360.00000     4.31650   180.00000   360.00000     4.31650
    18.70000   180.00000   180.00000     4.31646   180.00000   180.00000     4.31646
    18.80000   180.00000   180.00000     4.31641   180.00000   180.00000     4.31641
    18.90000   180.00000   360.00000     4.31636   180.00000   360.00000     4.31636
    19.00000   180.00000   180.00000     4.31631   180.00000   180.00000     4.31631
    19.10000   180.00000   180.00000     4.31626   180.00000   180.00000     4.31626
    19.20000   180.00000   360.00000     4.31621   180.00000   360.00000     4.31621
    19.30000   180.00000   180.00000     4.31616   180.00000   180.00000     4.31616
    19.40000   180.00000   180.00000     4.31611   180.00000   180.00000     4.31611
    19.50000   180.00000   360.00000     4.31607   180.00000   360.00000     4.31607
    19.60000   180.00000   180.00000     4.31602   180.00000   180.00000     4.31602
    19.70000   180.00000   180.00000     4.31597   180.00000   180.00000     4.31597
    19.80000   180.00000   180.00000     4.31592   180.00000   180.00000     4.31592
    19.90000   180.00000   180.00000     4.31587   180.00000   180.00000     4.31587
    20.00000   180.00000   360.00000     4.31582   180.00000   360.00000     4.31582
    20.10000   180.00000   180.00000     4.31577   180.00000   180.00000     4.31577
    20.20000   180.00000   360.00000     4.31572   180.00000   360.00000     4.31572
    20.30000   180.00000   180.00000     4.31568   180.00000   180.00000     4.31568
    20.40000   180.00000   180.00000     4.31563   180.00000   180.00000     4.31563
    20.50000   180.00000   180.00000     4.31558   180.00000   180.00000     4.31558
    20.60000   180.00000   180.00000     4.31553   180.00000   180.00000     4.31553
    20.70000   180.00000   180.00000     4.31548   180.00000   180.00000     4.31548
    20.80000   180.00000   180.00000     4.31543   180.00000   180.00000     4.31543
    20.90000   180.00000   360.00000     4.31538   180.00000   360.00000     4.31538
    21.00000   180.00000   360.00000     4.31533   180.00000   360.00000     4.31533
    21.10000   180.00000   360.00000     4.31528   180.00000   360.00000     4.31528
    21.20000   180.00000   180.00000     4.31524   180.00000   180.00000     4.31524
    21.30000   180.00000   360.00000     4.31519   180.00000   360.00000     4.31519
    21.40000   180.00000   360.00000     4.31514   180.00000   360.00000     4.31514
    21.50000   180.00000   360.00000     4.31509   180.00000   360.00000     4.31509
    21.60000   180.00000   180.00000     4.31504   180.00000   180.00000     4.31504
    21.70000   180.00000   360.00000     4.31499   180.00000   360.00000     4.31499
    21.80000   180.00000   360.00000     4.31494   180.00000   360.00000     4.31494
    21.90000   180.00000   360.00000     4.31489   180.00000   360.00000     4.31489
    22.00000   180.00000   180.00000     4.31484   180.00000   180.00000     4.31484
    22.10000   180.00000   360.00000     4.31480   180.00000   360.00000     4.31480
    22.20000   180.00000   360.00000     4.31475   180.00000   360.00000     4.31475
    22.30000   180.00000   360.00000     4.31470   180.00000   360.00000     4.31470
    22.40000   180.00000   180.00000     4.31465   180.00000   180.00000     4.31465
    22.50000   180.00000   180.00000     4.31460   180.00000   180.00000     4.31460
    22.60000   180.00000   180.00000     4.31455   180.00000   180.00000     4.31455
    22.70000   180.00000   180.00000     4.31450   180.00000   180.00000     4.31450
    22.80000   180.00000   180.00000     4.31445   180.00000   180.00000     4.31445
    22.90000   180.00000   360.00000     4.31440   180.00000   360.00000     4.31440
    23.00000   180.00000   180.00000     4.31435   180.00000   180.00000     4.31435
    23.10000   180.00000   360.00000     4.31431   180.00000   360.00000     4.31431
    23.20000   180.00000   180.00000     4.31426   180.00000   180.00000     4.31426
    23.30000   180.00000   180.00000     4.31421   180.00000   180.00000     4.31421
    23.40000   180.00000   180.00000     4.31416   180.00000   180.00000     4.31416
    23.50000   180.00000   180.00000     4.31411   180.00000   180.00000     4.31411
    23.60000   180.00000   360.00000     4.31406   180.00000   360.00000     4.31406
    23.70000   180.00000   180.00000     4.31401   180.00000   180.00000     4.31401
    23.80000   180.00000   360.00000     4.31396   180.00000   360.00000     4.31396
    23.90000   180.00000   360.00000     4.31391   180.00000   360.00000     4.31391
    24.00000   180.00000   180.00000     4.31386   180.00000   180.00000     4.31386
    24.10000   180.00000   360.00000     4.31381   180.00000   360.00000     4.31381
    24.20000   180.00000   360.00000     4.31377   180.00000   360.00000     4.31377
    24.30000   180.00000   180.00000     4.31372   180.00000   180.00000     4.31372
    24.40000   180.00000   360.00000     4.31367   180.00000   360.00000     4.31367
    24.50000   180.00000   360.00000     4.31362   180.00000   360.00000     4.31362
    24.60000   180.00000   180.00000     4.31357   180.00000   180.00000     4.31357
    24.70000   180.00000   360.00000     4.31352   180.00000   360.00000     4.31352
    24.80000   180.00000   360.00000     4.31347   180.00000   360.00000     4.31347
    24.90000   180.00000   360.00000     4.31342   180.00000   360.00000     4.31342
    25.00000   180.00000   180.00000     4.31337   180.00000   180.00000     4.31337
    25.10000   180.00000   360.00000     4.31332   180.00000   360.00000     4.31332
    25.20000   180.00000   360.00000     4.31327   180.00000   360.00000     4.31327
    25.30000   180.00000   180.00000     4.31323   180.00000   180.00000     4.31323
    25.40000   180.00000   360.00000     4.31318   180.00000   360.00000     4.31318
    25.50000   180.00000   180.00000     4.31313   180.00000   180.00000     4.31313
    25.60000   180.00000   180.00000     4.31308   180.00000   180.00000     4.31308
    25.70000   180.00000   180.00000     4.31303   180.00000   180.00000     4.31303
    25.80000   180.00000   180.00000     4.31298   180.00000   180.00000     4.31298
    25.90000   180.00000   360.00000     4.31293   180.00000   360.00000     4.31293
    26.00000   180.00000   180.00000     4.31288   180.00000   180.00000     4.31288
    26.10000   180.00000   180.00000     4.31283   180.00000   180.00000     4.31283
    26.20000   180.00000   360.00000     4.31278   180.00000   360.00000     4.31278
    26.30000   180.00000   180.00000     4.31273   180.00000   180.00000     4.31273
    26.40000   180.00000   360.00000     4.31268   180.00000   360.00000     4.31268
    26.50000   180.00000   180.00000     4.31264   180.00000   180.00000     4.31264
    26.60000   180.00000   180.00000     4.31259   180.00000   180.00000     4.31259
    26.70000   180.00000   360.00000     4.31254   180.00000   360.00000     4.31254
    26.80000   180.00000   360.00000     4.31249   180.00000   360.00000     4.31249
    26.90000   180.00000   180.00000     4.31244   180.00000   180.00000     4.31244
    27.00000   180.00000   180.00000     4.31239   180.00000   180.00000     4.31239
    27.10000   180.00000   180.00000     4.31234   180.00000   180.00000     4.31234
    27.20000   180.00000   360.00000     4.31229   180.00000   360.00000     4.31229
    27.30000   180.00000   360.00000     4.31224   180.00000   360.00000     4.31224
    27.40000   180.00000   180.00000     4.31219   180.00000   180.00000     4.31219
    27.50000   180.00000   360.00000     4.31214   180.00000   360.00000     4.31214
    27.60000   180.00000   360.00000     4.31209   180.00000   360.00000     4.31209
    27.70000   180.00000   180.00000     4.31204   180.00000   180.00000     4.31204
    27.80000   180.00000   180.00000     4.31199   180.00000   180.00000     4.31199
    27.90000   180.00000   360.00000     4.31195   180.00000   360.00000     4.31195
    28.00000   180.00000   360.00000     4.31190   180.00000   360.00000     4.31190
    28.10000   180.00000   360.00000     4.31185   180.00000   360.00000     4.31185
    28.20000   180.00000   360.00000     4.31180   180.00000   360.00000     4.31180
    28.30000   180.00000   180.00000     4.31175   180.00000   180.00000     4.31175
    28.40000   180.00000   360.00000     4.31170   180.00000   360.00000     4.31170
    28.50000   180.00000   180.00000     4.31165   180.00000   180.00000     4.31165
    28.60000   180.00000   360.00000     4.31160   180.00000   360.00000     4.31160
    28.70000   180.00000   360.00000     4.31155   180.00000   360.00000     4.31155
    28.80000   180.00000   360.00000     4.31150   180.00000   360.00000     4.31150
    28.90000   180.00000   180.00000     4.31145   180.00000   180.00000     4.31145
    29.00000   180.00000   360.00000     4.31140   180.00000   360.00000     4.31140
    29.10000   180.00000   360.00000     4.31135   180.00000   360.00000     4.31135
    29.20000   180.00000   180.00000     4.31130   180.00000   180.00000     4.31130
    29.30000   180.00000   360.00000     4.31125   180.00000   360.00000     4.31125
    29.40000   180.00000   360.00000     4.31120   180.00000   360.00000     4.31120
    29.50000   180.00000   180.00000     4.31116   180.00000   180.00000     4.31116
    29.60000   180.00000   180.00000     4.31111   180.00000   180.00000     4.31111
    29.70000   180.00000   360.00000     4.31106   180.00000   360.00000     4.31106
    29.80000   180.00000   180.00000     4.31101   180.00000   180.00000     4.31101
    29.90000   180.00000   360.00000     4.31096   180.00000   360.00000     4.31096
    30.00000   180.00000   360.00000     4.31091   180.00000   360.00000     4.31091
    30.10000   180.00000   360.00000     4.31086   180.00000   360.00000     4.31086
    30.20000   180.00000   180.00000     4.31081   180.00000   180.00000     4.31081
    30.30000   180.00000   360.00000     4.31076   180.00000   360.00000     4.31076
    30.40000   180.00000   360.00000     4.31071   180.00000   360.00000     4.31071
    30.50000   180.00000   180.00000     4.31066   180.00000   180.00000     4.31066
    30.60000   180.00000   180.00000     4.31061   180.00000   180.00000     4.31061
    30.70000   180.00000   360.00000     4.31056   180.00000   360.00000     4.31056
    30.80000   180.00000   360.00000     4.31051   180.00000   360.00000     4.31051
    30.90000   180.00000   180.00000     4.31046   180.00000   180.00000     4.31046
    31.00000   180.00000   360.00000     4.31041   180.00000   360.00000     4.31041
    31.10000   180.00000   180.00000     4.31036   180.00000   180.00000     4.31036
    31.20000   180.00000   180.00000     4.31031   180.00000   180.00000     4.31031
    31.30000   180.00000   360.00000     4.31026   180.00000   360.00000     4.31026
    31.40000   180.00000   180.00000     4.31022   180.00000   180.00000     4.31022
    31.50000   180.00000   180.00000     4.31017   180.00000   180.00000     4.31017
    31.60000   180.00000   180.00000     4.31012   180.00000   180.00000     4.31012
    31.70000   180.00000   360.00000     4.31007   180.00000   360.00000     4.31007
    31.80000   180.00000   180.00000     4.31002   180.00000   180.00000     4.31002
    31.90000   180.00000   360.00000     4.30997   180.00000   360.00000     4.30997
    32.00000   180.00000   180.00000     4.30992   180.00000   180.00000     4.30992
    32.10000   180.00000   180.00000     4.30987   180.00000   180.00000     4.30987
    32.20000   180.00000   360.00000     4.30982   180.00000   360.00000     4.30982
    32.30000   180.00000   360.00000     4.30977   180.00000   360.00000     4.30977
    32.40000   180.00000   180.00000     4.30972   180.00000   180.00000     4.30972
    32.50000   180.00000   180.00000     4.30967   180.00000   180.00000     4.30967
    32.60000   180.00000   180.00000     4.30962   180.00000   180.00000     4.30962
    32.70000   180.00000   360.00000     4.30957   180.00000   360.00000     4.30957
    32.80000   180.00000   180.00000     4.30952   180.00000   180.00000     4.30952
    32.90000   180.00000   360.00000     4.30947   180.00000   360.00000     4.30947
    33.00000   180.00000   360.00000     4.30942   180.00000   360.00000     4.30942
    33.10000   180.00000   180.00000     4.30937   180.00000   180.00000     4.30937
    33.20000   180.00000   360.00000     4.30932   180.00000   360.00000     4.30932
    33.30000   180.00000   360.00000     4.30927   180.00000   360.00000     4.30927
    33.40000   180.00000   180.00000     4.30922   180.00000   180.00000     4.30922
    33.50000   180.00000   360.00000     4.30917   180.00000   360.00000     4.30917
    33.60000   180.00000   360.00000     4.30912   180.00000   360.00000     4.30912
    33.70000   180.00000   180.00000     4.30907   180.00000   180.00000     4.30907
    33.80000   180.00000   360.00000     4.30902   180.00000   360.00000     4.30902
    33.90000   180.00000   180.00000     4.30897   180.00000   180.00000     4.30897
    34.00000   180.00000   180.00000     4.30892   180.00000   180.00000     4.30892
    34.10000   180.00000   360.00000     4.30888   180.00000   360.00000     4.30888
    34.20000   180.00000   180.00000     4.30883   180.00000   180.00000     4.30883
    34.30000   180.00000   180.00000     4.30878   180.00000   180.00000     4.30878
    34.40000   180.00000   360.00000     4.30873   180.00000   360.00000     4.30873
    34.50000   180.00000   360.00000     4.30868   180.00000   360.00000     4.30868
    34.60000   180.00000   180.00000     4.30863   180.00000   180.00000     4.30863
    34.70000   180.00000   180.00000     4.30858   180.00000   180.00000     4.30858
    34.80000   180.00000   180.00000     4.30853   180.00000   180.00000     4.30853
    34.90000   180.00000   180.00000     4.30848   180.00000   180.00000     4.30848
    35.00000   180.00000   360.00000     4.30843   180.00000   360.00000     4.30843
    35.10000   180.00000   180.00000     4.30838   180.00000   180.00000     4.30838
    35.20000   180.00000   360.00000     4.30833   180.00000   360.00000     4.30833
    35.30000   180.00000   360.00000     4.30828   180.00000   360.00000     4.30828
    35.40000   180.00000   180.00000     4.30823   180.00000   180.00000     4.30823
    35.50000   180.00000   180.00000     4.30818   180.00000   180.00000     4.30818
    35.60000   180.00000   360.00000     4.30813   180.00000   360.00000     4.30813
    35.70000   180.00000   360.00000     4.30808   180.00000   360.00000     4.30808
    35.80000   180.00000   180.00000     4.30803   180.00000   180.00000     4.30803
    35.90000   180.00000   360.00000     4.30798   180.00000   360.00000     4.30798
    36.00000   180.00000   180.00000     4.30793   180.00000   180.00000     4.30793
    36.10000   180.00000   360.00000     4.30788   180.00000   360.00000     4.30788
    36.20000   180.00000   180.00000     4.30783   180.00000   180.00000     4.30783
    36.30000   180.00000   360.00000     4.30778   180.00000   360.00000     4.30778
    36.40000   180.00000   180.00000     4.30773   180.00000   180.00000     4.30773
    36.50000   180.00000   180.00000     4.30768   180.00000   180.00000     4.30768
    36.60000   180.00000   180.00000     4.30763   180.00000   180.00000     4.30763
    36.70000   180.00000   180.00000     4.30758   180.00000   180.00000     4.30758
    36.80000   180.00000   180.00000     4.30753   180.00000   180.00000     4.30753
    36.90000   180.00000   180.00000     4.30748   180.00000   180.00000     4.30748
    37.00000   180.00000   360.00000     4.30743   180.00000   360.00000     4.30743
    37.10000   180.00000   180.00000     4.30738   180.00000   180.00000     4.30738
    37.20000   180.00000   180.00000     4.30733   180.00000   180.00000     4.30733
    37.30000   180.00000   180.00000     4.30728   180.00000   180.00000     4.30728
    37.40000   180.00000   180.00000     4.30723   180.00000   180.00000     4.30723
    37.50000   180.00000   360.00000     4.30718   180.00000   360.00000     4.30718
    37.60000   180.00000   180.00000     4.30713   180.00000   180.00000     4.30713
    37.70000   180.00000   180.00000     4.30708   180.00000   180.00000     4.30708
    37.80000   180.00000   180.00000     4.30703   180.00000   180.00000     4.30703
    37.90000   180.00000   180.00000     4.30698   180.00000   180.00000     4.30698
    38.00000   180.00000   180.00000     4.30693   180.00000   180.00000     4.30693
    38.10000   180.00000   360.00000     4.30688   180.00000   360.00000     4.30688
    38.20000   180.00000   360.00000     4.30683   180.00000   360.00000     4.30683
    38.30000   180.00000   180.00000     4.30678   180.00000   180.00000     4.30678
    38.40000   180.00000   180.00000     4.30673   180.00000   180.00000     4.30673
    38.50000   180.00000   360.00000     4.30668   180.00000   360.00000     4.30668
    38.60000   180.00000   360.00000     4.30663   180.00000   360.00000     4.30663
    38.70000   180.00000   180.00000     4.30658   180.00000   180.00000     4.30658
    38.80000   180.00000   180.00000     4.30653   180.00000   180.00000     4.30653
    38.90000   180.00000   360.00000     4.30648   180.00000   360.00000     4.30648
    39.00000   180.00000   180.00000     4.30643   180.00000   180.00000     4.30643
    39.10000   180.00000   180.00000     4.30638   180.00000   180.00000     4.30638
    39.20000   180.00000   360.00000     4.30633   180.00000   360.00000     4.30633
    39.30000   180.00000   180.00000     4.30628   180.00000   180.00000     4.30628
    39.40000   180.00000   180.00000     4.30623   180.00000   180.00000     4.30623
    39.50000   180.00000   180.00000     4.30618   180.00000   180.00000     4.30618
    39.60000   180.00000   360.00000     4.30613   180.00000   360.00000     4.30613
    39.70000   180.00000   360.00000     4.30608   180.00000   360.00000     4.30608
    39.80000   180.00000   180.00000     4.30603   180.00000   180.00000     4.30603
    39.90000   180.00000   360.00000     4.30598   180.00000   360.00000     4.30598
    40.00000   180.00000   180.00000     4.30593   180.00000   180.00000     4.30593
