 # applied field (T), theta (degree), phi (degree), abs for RE 1-2
     0.00000     0.00000     0.00000     3.31738     0.00000     0.00000     3.31738
     0.10000     1.15763   360.00000     3.31729     1.15763   360.00000     3.31729
     0.20000     2.26302   360.00000     3.31703     2.26302   360.00000     3.31703
     0.30000     3.42137   360.00000     3.31658     3.42137   360.00000     3.31658
     0.40000     4.58046   360.00000     3.31594     4.58046   360.00000     3.31594
     0.50000     5.74054   360.00000     3.31513     5.74054   360.00000     3.31513
     0.60000     6.90184   360.00000     3.31413     6.90184   360.00000     3.31413
     0.70000     8.06461   360.00000     3.31297     8.06461   360.00000     3.31297
     0.80000     9.22908   360.00000     3.31162     9.22908   360.00000     3.31162
     0.90000    10.44840   360.00000     3.31004    10.44840   360.00000     3.31004
     1.00000    11.61705   360.00000     3.30836    11.61705   360.00000     3.30836
     1.10000    12.84123   360.00000     3.30644    12.84123   360.00000     3.30644
     1.20000    14.06824   360.00000     3.30434    14.06824   360.00000     3.30434
     1.30000    15.35174   360.00000     3.30198    15.35174   360.00000     3.30198
     1.40000    16.63883   360.00000     3.29946    16.63883   360.00000     3.29946
     1.50000    17.92974   360.00000     3.29678    17.92974   360.00000     3.29678
     1.60000    19.22469   360.00000     3.29394    19.22469   360.00000     3.29394
     1.70000    20.57798   360.00000     3.29084    20.57798   360.00000     3.29084
     1.80000    21.93610   360.00000     3.28760    21.93610   360.00000     3.28760
     1.90000    23.35374   360.00000     3.28409    23.35374   360.00000     3.28409
     2.00000    24.83175   360.00000     3.28031    24.83175   360.00000     3.28031
     2.10000    26.31602   360.00000     3.27641    26.31602   360.00000     3.27641
     2.20000    27.86193   360.00000     3.27226    27.86193   360.00000     3.27226
     2.30000    29.47040   360.00000     3.26785    29.47040   360.00000     3.26785
     2.40000    31.14234   360.00000     3.26320    31.14234   360.00000     3.26320
     2.50000    32.87869   360.00000     3.25832    32.87869   360.00000     3.25832
     2.60000    34.68037   360.00000     3.25324    34.68037   360.00000     3.25324
     2.70000    36.54830   360.00000     3.24796    36.54830   360.00000     3.24796
     2.80000    38.54036   360.00000     3.24237    38.54036   360.00000     3.24237
     2.90000    40.65838   360.00000     3.23649    40.65838   360.00000     3.23649
     3.00000    42.96186   360.00000     3.23022    42.96186   360.00000     3.23022
     3.10000    45.39553   360.00000     3.22376    45.39553   360.00000     3.22376
     3.20000    48.01945   360.00000     3.21705    48.01945   360.00000     3.21705
     3.30000    50.95378   360.00000     3.20990    50.95378   360.00000     3.20990
     3.40000    54.20305   360.00000     3.20248    54.20305   360.00000     3.20248
     3.50000    57.95016   360.00000     3.19464    57.95016   360.00000     3.19464
     3.60000    62.38197   360.00000     3.18642    62.38197   360.00000     3.18642
     3.70000    67.99072   360.00000     3.17774    67.99072   360.00000     3.17774
     3.80000    76.25137   360.00000     3.16857    76.25137   360.00000     3.16857
     3.90000    90.00000   360.00000     3.16279    90.00000   360.00000     3.16279
     4.00000    90.00000   360.00000     3.16291    90.00000   360.00000     3.16291
     4.10000    90.00000   360.00000     3.16303    90.00000   360.00000     3.16303
     4.20000    90.00000   360.00000     3.16315    90.00000   360.00000     3.16315
     4.30000    90.00000   360.00000     3.16327    90.00000   360.00000     3.16327
     4.40000    90.00000   360.00000     3.16340    90.00000   360.00000     3.16340
     4.50000    90.00000   360.00000     3.16352    90.00000   360.00000     3.16352
     4.60000    90.00000   360.00000     3.16364    90.00000   360.00000     3.16364
     4.70000    90.00000   360.00000     3.16376    90.00000   360.00000     3.16376
     4.80000    90.00000   360.00000     3.16388    90.00000   360.00000     3.16388
     4.90000    90.00000   360.00000     3.16400    90.00000   360.00000     3.16400
     5.00000    90.00000   360.00000     3.16412    90.00000   360.00000     3.16412
     5.10000    90.00000   360.00000     3.16424    90.00000   360.00000     3.16424
     5.20000    90.00000   360.00000     3.16436    90.00000   360.00000     3.16436
     5.30000    90.00000   360.00000     3.16448    90.00000   360.00000     3.16448
     5.40000    90.00000   360.00000     3.16460    90.00000   360.00000     3.16460
     5.50000    90.00000   360.00000     3.16472    90.00000   360.00000     3.16472
     5.60000    90.00000   360.00000     3.16485    90.00000   360.00000     3.16485
     5.70000    90.00000   360.00000     3.16497    90.00000   360.00000     3.16497
     5.80000    90.00000   360.00000     3.16509    90.00000   360.00000     3.16509
     5.90000    90.00000   360.00000     3.16521    90.00000   360.00000     3.16521
     6.00000    90.00000   360.00000     3.16533    90.00000   360.00000     3.16533
     6.10000    90.00000   360.00000     3.16545    90.00000   360.00000     3.16545
     6.20000    90.00000   360.00000     3.16557    90.00000   360.00000     3.16557
     6.30000    90.00000   360.00000     3.16569    90.00000   360.00000     3.16569
     6.40000    90.00000   360.00000     3.16581    90.00000   360.00000     3.16581
     6.50000    90.00000   360.00000     3.16593    90.00000   360.00000     3.16593
     6.60000    90.00000   360.00000     3.16605    90.00000   360.00000     3.16605
     6.70000    90.00000   360.00000     3.16617    90.00000   360.00000     3.16617
     6.80000    90.00000   360.00000     3.16629    90.00000   360.00000     3.16629
     6.90000    90.00000   360.00000     3.16641    90.00000   360.00000     3.16641
     7.00000    90.00000   360.00000     3.16653    90.00000   360.00000     3.16653
     7.10000    90.00000   360.00000     3.16665    90.00000   360.00000     3.16665
     7.20000    90.00000   360.00000     3.16677    90.00000   360.00000     3.16677
     7.30000    90.00000   360.00000     3.16689    90.00000   360.00000     3.16689
     7.40000    90.00000   360.00000     3.16701    90.00000   360.00000     3.16701
     7.50000    90.00000   360.00000     3.16713    90.00000   360.00000     3.16713
     7.60000    90.00000   360.00000     3.16725    90.00000   360.00000     3.16725
     7.70000    90.00000   360.00000     3.16737    90.00000   360.00000     3.16737
     7.80000    90.00000   360.00000     3.16749    90.00000   360.00000     3.16749
     7.90000    90.00000   360.00000     3.16761    90.00000   360.00000     3.16761
     8.00000    90.00000   360.00000     3.16773    90.00000   360.00000     3.16773
     8.10000    90.00000   360.00000     3.16785    90.00000   360.00000     3.16785
     8.20000    90.00000   360.00000     3.16797    90.00000   360.00000     3.16797
     8.30000    90.00000   360.00000     3.16809    90.00000   360.00000     3.16809
     8.40000    90.00000   360.00000     3.16821    90.00000   360.00000     3.16821
     8.50000    90.00000   360.00000     3.16833    90.00000   360.00000     3.16833
     8.60000    90.00000   360.00000     3.16845    90.00000   360.00000     3.16845
     8.70000    90.00000   360.00000     3.16857    90.00000   360.00000     3.16857
     8.80000    90.00000   360.00000     3.16869    90.00000   360.00000     3.16869
     8.90000    90.00000   360.00000     3.16881    90.00000   360.00000     3.16881
     9.00000    90.00000   360.00000     3.16893    90.00000   360.00000     3.16893
     9.10000    90.00000   360.00000     3.16905    90.00000   360.00000     3.16905
     9.20000    90.00000   360.00000     3.16917    90.00000   360.00000     3.16917
     9.30000    90.00000   360.00000     3.16928    90.00000   360.00000     3.16928
     9.40000    90.00000   360.00000     3.16940    90.00000   360.00000     3.16940
     9.50000    90.00000   360.00000     3.16952    90.00000   360.00000     3.16952
     9.60000    90.00000   360.00000     3.16964    90.00000   360.00000     3.16964
     9.70000    90.00000   360.00000     3.16976    90.00000   360.00000     3.16976
     9.80000    90.00000   360.00000     3.16988    90.00000   360.00000     3.16988
     9.90000    90.00000   360.00000     3.17000    90.00000   360.00000     3.17000
    10.00000    90.00000   360.00000     3.17012    90.00000   360.00000     3.17012
    10.10000    90.00000   360.00000     3.17024    90.00000   360.00000     3.17024
    10.20000    90.00000   360.00000     3.17036    90.00000   360.00000     3.17036
    10.30000    90.00000   360.00000     3.17048    90.00000   360.00000     3.17048
    10.40000    90.00000   360.00000     3.17060    90.00000   360.00000     3.17060
    10.50000    90.00000   360.00000     3.17072    90.00000   360.00000     3.17072
    10.60000    90.00000   360.00000     3.17083    90.00000   360.00000     3.17083
    10.70000    90.00000   360.00000     3.17095    90.00000   360.00000     3.17095
    10.80000    90.00000   360.00000     3.17107    90.00000   360.00000     3.17107
    10.90000    90.00000   360.00000     3.17119    90.00000   360.00000     3.17119
    11.00000    90.00000   360.00000     3.17131    90.00000   360.00000     3.17131
    11.10000    90.00000   360.00000     3.17143    90.00000   360.00000     3.17143
    11.20000    90.00000   360.00000     3.17155    90.00000   360.00000     3.17155
    11.30000    90.00000   360.00000     3.17167    90.00000   360.00000     3.17167
    11.40000    90.00000   360.00000     3.17178    90.00000   360.00000     3.17178
    11.50000    90.00000   360.00000     3.17190    90.00000   360.00000     3.17190
    11.60000    90.00000   360.00000     3.17202    90.00000   360.00000     3.17202
    11.70000    90.00000   360.00000     3.17214    90.00000   360.00000     3.17214
    11.80000    90.00000   360.00000     3.17226    90.00000   360.00000     3.17226
    11.90000    90.00000   360.00000     3.17238    90.00000   360.00000     3.17238
    12.00000    90.00000   360.00000     3.17250    90.00000   360.00000     3.17250
    12.10000    90.00000   360.00000     3.17261    90.00000   360.00000     3.17261
    12.20000    90.00000   360.00000     3.17273    90.00000   360.00000     3.17273
    12.30000    90.00000   360.00000     3.17285    90.00000   360.00000     3.17285
    12.40000    90.00000   360.00000     3.17297    90.00000   360.00000     3.17297
    12.50000    90.00000   360.00000     3.17309    90.00000   360.00000     3.17309
    12.60000    90.00000   360.00000     3.17321    90.00000   360.00000     3.17321
    12.70000    90.00000   360.00000     3.17333    90.00000   360.00000     3.17333
    12.80000    90.00000   360.00000     3.17344    90.00000   360.00000     3.17344
    12.90000    90.00000   360.00000     3.17356    90.00000   360.00000     3.17356
    13.00000    90.00000   360.00000     3.17368    90.00000   360.00000     3.17368
    13.10000    90.00000   360.00000     3.17380    90.00000   360.00000     3.17380
    13.20000    90.00000   360.00000     3.17392    90.00000   360.00000     3.17392
    13.30000    90.00000   360.00000     3.17403    90.00000   360.00000     3.17403
    13.40000    90.00000   360.00000     3.17415    90.00000   360.00000     3.17415
    13.50000    90.00000   360.00000     3.17427    90.00000   360.00000     3.17427
    13.60000    90.00000   360.00000     3.17439    90.00000   360.00000     3.17439
    13.70000    90.00000   360.00000     3.17451    90.00000   360.00000     3.17451
    13.80000    90.00000   360.00000     3.17462    90.00000   360.00000     3.17462
    13.90000    90.00000   360.00000     3.17474    90.00000   360.00000     3.17474
    14.00000    90.00000   360.00000     3.17486    90.00000   360.00000     3.17486
    14.10000    90.00000   360.00000     3.17498    90.00000   360.00000     3.17498
    14.20000    90.00000   360.00000     3.17510    90.00000   360.00000     3.17510
    14.30000    90.00000   360.00000     3.17521    90.00000   360.00000     3.17521
    14.40000    90.00000   360.00000     3.17533    90.00000   360.00000     3.17533
    14.50000    90.00000   360.00000     3.17545    90.00000   360.00000     3.17545
    14.60000    90.00000   360.00000     3.17557    90.00000   360.00000     3.17557
    14.70000    90.00000   360.00000     3.17568    90.00000   360.00000     3.17568
    14.80000    90.00000   360.00000     3.17580    90.00000   360.00000     3.17580
    14.90000    90.00000   360.00000     3.17592    90.00000   360.00000     3.17592
    15.00000    90.00000   360.00000     3.17604    90.00000   360.00000     3.17604
    15.10000    90.00000   360.00000     3.17615    90.00000   360.00000     3.17615
    15.20000    90.00000   360.00000     3.17627    90.00000   360.00000     3.17627
    15.30000    90.00000   360.00000     3.17639    90.00000   360.00000     3.17639
    15.40000    90.00000   360.00000     3.17651    90.00000   360.00000     3.17651
    15.50000    90.00000   360.00000     3.17662    90.00000   360.00000     3.17662
    15.60000    90.00000   360.00000     3.17674    90.00000   360.00000     3.17674
    15.70000    90.00000   360.00000     3.17686    90.00000   360.00000     3.17686
    15.80000    90.00000   360.00000     3.17698    90.00000   360.00000     3.17698
    15.90000    90.00000   360.00000     3.17709    90.00000   360.00000     3.17709
    16.00000    90.00000   360.00000     3.17721    90.00000   360.00000     3.17721
    16.10000    90.00000   360.00000     3.17733    90.00000   360.00000     3.17733
    16.20000    90.00000   360.00000     3.17745    90.00000   360.00000     3.17745
    16.30000    90.00000   360.00000     3.17756    90.00000   360.00000     3.17756
    16.40000    90.00000   360.00000     3.17768    90.00000   360.00000     3.17768
    16.50000    90.00000   360.00000     3.17780    90.00000   360.00000     3.17780
    16.60000    90.00000   360.00000     3.17791    90.00000   360.00000     3.17791
    16.70000    90.00000   360.00000     3.17803    90.00000   360.00000     3.17803
    16.80000    90.00000   360.00000     3.17815    90.00000   360.00000     3.17815
    16.90000    90.00000   360.00000     3.17826    90.00000   360.00000     3.17826
    17.00000    90.00000   360.00000     3.17838    90.00000   360.00000     3.17838
    17.10000    90.00000   360.00000     3.17850    90.00000   360.00000     3.17850
    17.20000    90.00000   360.00000     3.17862    90.00000   360.00000     3.17862
    17.30000    90.00000   360.00000     3.17873    90.00000   360.00000     3.17873
    17.40000    90.00000   360.00000     3.17885    90.00000   360.00000     3.17885
    17.50000    90.00000   360.00000     3.17897    90.00000   360.00000     3.17897
    17.60000    90.00000   360.00000     3.17908    90.00000   360.00000     3.17908
    17.70000    90.00000   360.00000     3.17920    90.00000   360.00000     3.17920
    17.80000    90.00000   360.00000     3.17932    90.00000   360.00000     3.17932
    17.90000    90.00000   360.00000     3.17943    90.00000   360.00000     3.17943
    18.00000    90.00000   360.00000     3.17955    90.00000   360.00000     3.17955
    18.10000    90.00000   360.00000     3.17967    90.00000   360.00000     3.17967
    18.20000    90.00000   360.00000     3.17978    90.00000   360.00000     3.17978
    18.30000    90.00000   360.00000     3.17990    90.00000   360.00000     3.17990
    18.40000    90.00000   360.00000     3.18002    90.00000   360.00000     3.18002
    18.50000    90.00000   360.00000     3.18013    90.00000   360.00000     3.18013
    18.60000    90.00000   360.00000     3.18025    90.00000   360.00000     3.18025
    18.70000    90.00000   360.00000     3.18036    90.00000   360.00000     3.18036
    18.80000    90.00000   360.00000     3.18048    90.00000   360.00000     3.18048
    18.90000    90.00000   360.00000     3.18060    90.00000   360.00000     3.18060
    19.00000    90.00000   360.00000     3.18071    90.00000   360.00000     3.18071
    19.10000    90.00000   360.00000     3.18083    90.00000   360.00000     3.18083
    19.20000    90.00000   360.00000     3.18095    90.00000   360.00000     3.18095
    19.30000    90.00000   360.00000     3.18106    90.00000   360.00000     3.18106
    19.40000    90.00000   360.00000     3.18118    90.00000   360.00000     3.18118
    19.50000    90.00000   360.00000     3.18129    90.00000   360.00000     3.18129
    19.60000    90.00000   360.00000     3.18141    90.00000   360.00000     3.18141
    19.70000    90.00000   360.00000     3.18153    90.00000   360.00000     3.18153
    19.80000    90.00000   360.00000     3.18164    90.00000   360.00000     3.18164
    19.90000    90.00000   360.00000     3.18176    90.00000   360.00000     3.18176
    20.00000    90.00000   360.00000     3.18187    90.00000   360.00000     3.18187
    20.10000    90.00000   360.00000     3.18199    90.00000   360.00000     3.18199
    20.20000    90.00000   360.00000     3.18211    90.00000   360.00000     3.18211
    20.30000    90.00000   360.00000     3.18222    90.00000   360.00000     3.18222
    20.40000    90.00000   360.00000     3.18234    90.00000   360.00000     3.18234
    20.50000    90.00000   360.00000     3.18245    90.00000   360.00000     3.18245
    20.60000    90.00000   360.00000     3.18257    90.00000   360.00000     3.18257
    20.70000    90.00000   360.00000     3.18268    90.00000   360.00000     3.18268
    20.80000    90.00000   360.00000     3.18280    90.00000   360.00000     3.18280
    20.90000    90.00000   360.00000     3.18292    90.00000   360.00000     3.18292
    21.00000    90.00000   360.00000     3.18303    90.00000   360.00000     3.18303
    21.10000    90.00000   360.00000     3.18315    90.00000   360.00000     3.18315
    21.20000    90.00000   360.00000     3.18326    90.00000   360.00000     3.18326
    21.30000    90.00000   360.00000     3.18338    90.00000   360.00000     3.18338
    21.40000    90.00000   360.00000     3.18349    90.00000   360.00000     3.18349
    21.50000    90.00000   360.00000     3.18361    90.00000   360.00000     3.18361
    21.60000    90.00000   360.00000     3.18372    90.00000   360.00000     3.18372
    21.70000    90.00000   360.00000     3.18384    90.00000   360.00000     3.18384
    21.80000    90.00000   360.00000     3.18396    90.00000   360.00000     3.18396
    21.90000    90.00000   360.00000     3.18407    90.00000   360.00000     3.18407
    22.00000    90.00000   360.00000     3.18419    90.00000   360.00000     3.18419
    22.10000    90.00000   360.00000     3.18430    90.00000   360.00000     3.18430
    22.20000    90.00000   360.00000     3.18442    90.00000   360.00000     3.18442
    22.30000    90.00000   360.00000     3.18453    90.00000   360.00000     3.18453
    22.40000    90.00000   360.00000     3.18465    90.00000   360.00000     3.18465
    22.50000    90.00000   360.00000     3.18476    90.00000   360.00000     3.18476
    22.60000    90.00000   360.00000     3.18488    90.00000   360.00000     3.18488
    22.70000    90.00000   360.00000     3.18499    90.00000   360.00000     3.18499
    22.80000    90.00000   360.00000     3.18511    90.00000   360.00000     3.18511
    22.90000    90.00000   360.00000     3.18522    90.00000   360.00000     3.18522
    23.00000    90.00000   360.00000     3.18534    90.00000   360.00000     3.18534
    23.10000    90.00000   360.00000     3.18545    90.00000   360.00000     3.18545
    23.20000    90.00000   360.00000     3.18557    90.00000   360.00000     3.18557
    23.30000    90.00000   360.00000     3.18568    90.00000   360.00000     3.18568
    23.40000    90.00000   360.00000     3.18580    90.00000   360.00000     3.18580
    23.50000    90.00000   360.00000     3.18591    90.00000   360.00000     3.18591
    23.60000    90.00000   360.00000     3.18603    90.00000   360.00000     3.18603
    23.70000    90.00000   360.00000     3.18614    90.00000   360.00000     3.18614
    23.80000    90.00000   360.00000     3.18626    90.00000   360.00000     3.18626
    23.90000    90.00000   360.00000     3.18637    90.00000   360.00000     3.18637
    24.00000    90.00000   360.00000     3.18649    90.00000   360.00000     3.18649
    24.10000    90.00000   360.00000     3.18660    90.00000   360.00000     3.18660
    24.20000    90.00000   360.00000     3.18671    90.00000   360.00000     3.18671
    24.30000    90.00000   360.00000     3.18683    90.00000   360.00000     3.18683
    24.40000    90.00000   360.00000     3.18694    90.00000   360.00000     3.18694
    24.50000    90.00000   360.00000     3.18706    90.00000   360.00000     3.18706
    24.60000    90.00000   360.00000     3.18717    90.00000   360.00000     3.18717
    24.70000    90.00000   360.00000     3.18729    90.00000   360.00000     3.18729
    24.80000    90.00000   360.00000     3.18740    90.00000   360.00000     3.18740
    24.90000    90.00000   360.00000     3.18752    90.00000   360.00000     3.18752
    25.00000    90.00000   360.00000     3.18763    90.00000   360.00000     3.18763
    25.10000    90.00000   360.00000     3.18774    90.00000   360.00000     3.18774
    25.20000    90.00000   360.00000     3.18786    90.00000   360.00000     3.18786
    25.30000    90.00000   360.00000     3.18797    90.00000   360.00000     3.18797
    25.40000    90.00000   360.00000     3.18809    90.00000   360.00000     3.18809
    25.50000    90.00000   360.00000     3.18820    90.00000   360.00000     3.18820
    25.60000    90.00000   360.00000     3.18832    90.00000   360.00000     3.18832
    25.70000    90.00000   360.00000     3.18843    90.00000   360.00000     3.18843
    25.80000    90.00000   360.00000     3.18854    90.00000   360.00000     3.18854
    25.90000    90.00000   360.00000     3.18866    90.00000   360.00000     3.18866
    26.00000    90.00000   360.00000     3.18877    90.00000   360.00000     3.18877
    26.10000    90.00000   360.00000     3.18889    90.00000   360.00000     3.18889
    26.20000    90.00000   360.00000     3.18900    90.00000   360.00000     3.18900
    26.30000    90.00000   360.00000     3.18911    90.00000   360.00000     3.18911
    26.40000    90.00000   360.00000     3.18923    90.00000   360.00000     3.18923
    26.50000    90.00000   360.00000     3.18934    90.00000   360.00000     3.18934
    26.60000    90.00000   360.00000     3.18946    90.00000   360.00000     3.18946
    26.70000    90.00000   360.00000     3.18957    90.00000   360.00000     3.18957
    26.80000    90.00000   360.00000     3.18968    90.00000   360.00000     3.18968
    26.90000    90.00000   360.00000     3.18980    90.00000   360.00000     3.18980
    27.00000    90.00000   360.00000     3.18991    90.00000   360.00000     3.18991
    27.10000    90.00000   360.00000     3.19002    90.00000   360.00000     3.19002
    27.20000    90.00000   360.00000     3.19014    90.00000   360.00000     3.19014
    27.30000    90.00000   360.00000     3.19025    90.00000   360.00000     3.19025
    27.40000    90.00000   360.00000     3.19037    90.00000   360.00000     3.19037
    27.50000    90.00000   360.00000     3.19048    90.00000   360.00000     3.19048
    27.60000    90.00000   360.00000     3.19059    90.00000   360.00000     3.19059
    27.70000    90.00000   360.00000     3.19071    90.00000   360.00000     3.19071
    27.80000    90.00000   360.00000     3.19082    90.00000   360.00000     3.19082
    27.90000    90.00000   360.00000     3.19093    90.00000   360.00000     3.19093
    28.00000    90.00000   360.00000     3.19105    90.00000   360.00000     3.19105
    28.10000    90.00000   360.00000     3.19116    90.00000   360.00000     3.19116
    28.20000    90.00000   360.00000     3.19127    90.00000   360.00000     3.19127
    28.30000    90.00000   360.00000     3.19139    90.00000   360.00000     3.19139
    28.40000    90.00000   360.00000     3.19150    90.00000   360.00000     3.19150
    28.50000    90.00000   360.00000     3.19161    90.00000   360.00000     3.19161
    28.60000    90.00000   360.00000     3.19173    90.00000   360.00000     3.19173
    28.70000    90.00000   360.00000     3.19184    90.00000   360.00000     3.19184
    28.80000    90.00000   360.00000     3.19195    90.00000   360.00000     3.19195
    28.90000    90.00000   360.00000     3.19206    90.00000   360.00000     3.19206
    29.00000    90.00000   360.00000     3.19218    90.00000   360.00000     3.19218
    29.10000    90.00000   360.00000     3.19229    90.00000   360.00000     3.19229
    29.20000    90.00000   360.00000     3.19240    90.00000   360.00000     3.19240
    29.30000    90.00000   360.00000     3.19252    90.00000   360.00000     3.19252
    29.40000    90.00000   360.00000     3.19263    90.00000   360.00000     3.19263
    29.50000    90.00000   360.00000     3.19274    90.00000   360.00000     3.19274
    29.60000    90.00000   360.00000     3.19286    90.00000   360.00000     3.19286
    29.70000    90.00000   360.00000     3.19297    90.00000   360.00000     3.19297
    29.80000    90.00000   360.00000     3.19308    90.00000   360.00000     3.19308
    29.90000    90.00000   360.00000     3.19319    90.00000   360.00000     3.19319
    30.00000    90.00000   360.00000     3.19331    90.00000   360.00000     3.19331
    30.10000    90.00000   360.00000     3.19342    90.00000   360.00000     3.19342
    30.20000    90.00000   360.00000     3.19353    90.00000   360.00000     3.19353
    30.30000    90.00000   360.00000     3.19364    90.00000   360.00000     3.19364
    30.40000    90.00000   360.00000     3.19376    90.00000   360.00000     3.19376
    30.50000    90.00000   360.00000     3.19387    90.00000   360.00000     3.19387
    30.60000    90.00000   360.00000     3.19398    90.00000   360.00000     3.19398
    30.70000    90.00000   360.00000     3.19410    90.00000   360.00000     3.19410
    30.80000    90.00000   360.00000     3.19421    90.00000   360.00000     3.19421
    30.90000    90.00000   360.00000     3.19432    90.00000   360.00000     3.19432
    31.00000    90.00000   360.00000     3.19443    90.00000   360.00000     3.19443
    31.10000    90.00000   360.00000     3.19455    90.00000   360.00000     3.19455
    31.20000    90.00000   360.00000     3.19466    90.00000   360.00000     3.19466
    31.30000    90.00000   360.00000     3.19477    90.00000   360.00000     3.19477
    31.40000    90.00000   360.00000     3.19488    90.00000   360.00000     3.19488
    31.50000    90.00000   360.00000     3.19499    90.00000   360.00000     3.19499
    31.60000    90.00000   360.00000     3.19511    90.00000   360.00000     3.19511
    31.70000    90.00000   360.00000     3.19522    90.00000   360.00000     3.19522
    31.80000    90.00000   360.00000     3.19533    90.00000   360.00000     3.19533
    31.90000    90.00000   360.00000     3.19544    90.00000   360.00000     3.19544
    32.00000    90.00000   360.00000     3.19556    90.00000   360.00000     3.19556
    32.10000    90.00000   360.00000     3.19567    90.00000   360.00000     3.19567
    32.20000    90.00000   360.00000     3.19578    90.00000   360.00000     3.19578
    32.30000    90.00000   360.00000     3.19589    90.00000   360.00000     3.19589
    32.40000    90.00000   360.00000     3.19600    90.00000   360.00000     3.19600
    32.50000    90.00000   360.00000     3.19612    90.00000   360.00000     3.19612
    32.60000    90.00000   360.00000     3.19623    90.00000   360.00000     3.19623
    32.70000    90.00000   360.00000     3.19634    90.00000   360.00000     3.19634
    32.80000    90.00000   360.00000     3.19645    90.00000   360.00000     3.19645
    32.90000    90.00000   360.00000     3.19656    90.00000   360.00000     3.19656
    33.00000    90.00000   360.00000     3.19667    90.00000   360.00000     3.19667
    33.10000    90.00000   360.00000     3.19679    90.00000   360.00000     3.19679
    33.20000    90.00000   360.00000     3.19690    90.00000   360.00000     3.19690
    33.30000    90.00000   360.00000     3.19701    90.00000   360.00000     3.19701
    33.40000    90.00000   360.00000     3.19712    90.00000   360.00000     3.19712
    33.50000    90.00000   360.00000     3.19723    90.00000   360.00000     3.19723
    33.60000    90.00000   360.00000     3.19734    90.00000   360.00000     3.19734
    33.70000    90.00000   360.00000     3.19746    90.00000   360.00000     3.19746
    33.80000    90.00000   360.00000     3.19757    90.00000   360.00000     3.19757
    33.90000    90.00000   360.00000     3.19768    90.00000   360.00000     3.19768
    34.00000    90.00000   360.00000     3.19779    90.00000   360.00000     3.19779
    34.10000    90.00000   360.00000     3.19790    90.00000   360.00000     3.19790
    34.20000    90.00000   360.00000     3.19801    90.00000   360.00000     3.19801
    34.30000    90.00000   360.00000     3.19813    90.00000   360.00000     3.19813
    34.40000    90.00000   360.00000     3.19824    90.00000   360.00000     3.19824
    34.50000    90.00000   360.00000     3.19835    90.00000   360.00000     3.19835
    34.60000    90.00000   360.00000     3.19846    90.00000   360.00000     3.19846
    34.70000    90.00000   360.00000     3.19857    90.00000   360.00000     3.19857
    34.80000    90.00000   360.00000     3.19868    90.00000   360.00000     3.19868
    34.90000    90.00000   360.00000     3.19879    90.00000   360.00000     3.19879
    35.00000    90.00000   360.00000     3.19890    90.00000   360.00000     3.19890
    35.10000    90.00000   360.00000     3.19902    90.00000   360.00000     3.19902
    35.20000    90.00000   360.00000     3.19913    90.00000   360.00000     3.19913
    35.30000    90.00000   360.00000     3.19924    90.00000   360.00000     3.19924
    35.40000    90.00000   360.00000     3.19935    90.00000   360.00000     3.19935
    35.50000    90.00000   360.00000     3.19946    90.00000   360.00000     3.19946
    35.60000    90.00000   360.00000     3.19957    90.00000   360.00000     3.19957
    35.70000    90.00000   360.00000     3.19968    90.00000   360.00000     3.19968
    35.80000    90.00000   360.00000     3.19979    90.00000   360.00000     3.19979
    35.90000    90.00000   360.00000     3.19990    90.00000   360.00000     3.19990
    36.00000    90.00000   360.00000     3.20001    90.00000   360.00000     3.20001
    36.10000    90.00000   360.00000     3.20012    90.00000   360.00000     3.20012
    36.20000    90.00000   360.00000     3.20024    90.00000   360.00000     3.20024
    36.30000    90.00000   360.00000     3.20035    90.00000   360.00000     3.20035
    36.40000    90.00000   360.00000     3.20046    90.00000   360.00000     3.20046
    36.50000    90.00000   360.00000     3.20057    90.00000   360.00000     3.20057
    36.60000    90.00000   360.00000     3.20068    90.00000   360.00000     3.20068
    36.70000    90.00000   360.00000     3.20079    90.00000   360.00000     3.20079
    36.80000    90.00000   360.00000     3.20090    90.00000   360.00000     3.20090
    36.90000    90.00000   360.00000     3.20101    90.00000   360.00000     3.20101
    37.00000    90.00000   360.00000     3.20112    90.00000   360.00000     3.20112
    37.10000    90.00000   360.00000     3.20123    90.00000   360.00000     3.20123
    37.20000    90.00000   360.00000     3.20134    90.00000   360.00000     3.20134
    37.30000    90.00000   360.00000     3.20145    90.00000   360.00000     3.20145
    37.40000    90.00000   360.00000     3.20156    90.00000   360.00000     3.20156
    37.50000    90.00000   360.00000     3.20167    90.00000   360.00000     3.20167
    37.60000    90.00000   360.00000     3.20178    90.00000   360.00000     3.20178
    37.70000    90.00000   360.00000     3.20189    90.00000   360.00000     3.20189
    37.80000    90.00000   360.00000     3.20200    90.00000   360.00000     3.20200
    37.90000    90.00000   360.00000     3.20211    90.00000   360.00000     3.20211
    38.00000    90.00000   360.00000     3.20222    90.00000   360.00000     3.20222
    38.10000    90.00000   360.00000     3.20233    90.00000   360.00000     3.20233
    38.20000    90.00000   360.00000     3.20244    90.00000   360.00000     3.20244
    38.30000    90.00000   360.00000     3.20255    90.00000   360.00000     3.20255
    38.40000    90.00000   360.00000     3.20266    90.00000   360.00000     3.20266
    38.50000    90.00000   360.00000     3.20277    90.00000   360.00000     3.20277
    38.60000    90.00000   360.00000     3.20288    90.00000   360.00000     3.20288
    38.70000    90.00000   360.00000     3.20299    90.00000   360.00000     3.20299
    38.80000    90.00000   360.00000     3.20310    90.00000   360.00000     3.20310
    38.90000    90.00000   360.00000     3.20321    90.00000   360.00000     3.20321
    39.00000    90.00000   360.00000     3.20332    90.00000   360.00000     3.20332
    39.10000    90.00000   360.00000     3.20343    90.00000   360.00000     3.20343
    39.20000    90.00000   360.00000     3.20354    90.00000   360.00000     3.20354
    39.30000    90.00000   360.00000     3.20365    90.00000   360.00000     3.20365
    39.40000    90.00000   360.00000     3.20376    90.00000   360.00000     3.20376
    39.50000    90.00000   360.00000     3.20387    90.00000   360.00000     3.20387
    39.60000    90.00000   360.00000     3.20398    90.00000   360.00000     3.20398
    39.70000    90.00000   360.00000     3.20409    90.00000   360.00000     3.20409
    39.80000    90.00000   360.00000     3.20420    90.00000   360.00000     3.20420
    39.90000    90.00000   360.00000     3.20431    90.00000   360.00000     3.20431
    40.00000    90.00000   360.00000     3.20442    90.00000   360.00000     3.20442
