 # applied field (T), theta (degree), phi (degree), abs for RE 3-4
     0.00000     0.00000     0.00000     4.70458     0.00000     0.00000     4.70458
     0.10000     0.35331   360.00000     4.70457     0.35331   360.00000     4.70457
     0.20000     0.70667   360.00000     4.70456     0.70667   360.00000     4.70456
     0.30000     1.06011   360.00000     4.70455     1.06011   360.00000     4.70455
     0.40000     1.41366   360.00000     4.70453     1.41366   360.00000     4.70453
     0.50000     1.76739   360.00000     4.70450     1.76739   360.00000     4.70450
     0.60000     2.07129   360.00000     4.70447     2.07129   360.00000     4.70447
     0.70000     2.42542   360.00000     4.70443     2.42542   360.00000     4.70443
     0.80000     2.77982   360.00000     4.70439     2.77982   360.00000     4.70439
     0.90000     3.13455   360.00000     4.70433     3.13455   360.00000     4.70433
     1.00000     3.48964   360.00000     4.70428     3.48964   360.00000     4.70428
     1.10000     3.84512   360.00000     4.70421     3.84512   360.00000     4.70421
     1.20000     4.20104   360.00000     4.70414     4.20104   360.00000     4.70414
     1.30000     4.60785   360.00000     4.70405     4.60785   360.00000     4.70405
     1.40000     4.96485   360.00000     4.70397     4.96485   360.00000     4.70397
     1.50000     5.32241   360.00000     4.70388     5.32241   360.00000     4.70388
     1.60000     5.68058   360.00000     4.70379     5.68058   360.00000     4.70379
     1.70000     6.09015   360.00000     4.70367     6.09015   360.00000     4.70367
     1.80000     6.44975   360.00000     4.70356     6.44975   360.00000     4.70356
     1.90000     6.81008   360.00000     4.70345     6.81008   360.00000     4.70345
     2.00000     7.22226   360.00000     4.70331     7.22226   360.00000     4.70331
     2.10000     7.58428   360.00000     4.70318     7.58428   360.00000     4.70318
     2.20000     7.99851   360.00000     4.70303     7.99851   360.00000     4.70303
     2.30000     8.41389   360.00000     4.70287     8.41389   360.00000     4.70287
     2.40000    90.00000   360.00000     4.70194    90.00000   360.00000     4.70194
     2.50000    90.00000   360.00000     4.70192    90.00000   360.00000     4.70192
     2.60000    90.00000   360.00000     4.70190    90.00000   360.00000     4.70190
     2.70000    90.00000   360.00000     4.70188    90.00000   360.00000     4.70188
     2.80000    90.00000   360.00000     4.70186    90.00000   360.00000     4.70186
     2.90000    90.00000   360.00000     4.70184    90.00000   360.00000     4.70184
     3.00000    90.00000   360.00000     4.70182    90.00000   360.00000     4.70182
     3.10000    90.00000   360.00000     4.70180    90.00000   360.00000     4.70180
     3.20000    90.00000   360.00000     4.70179    90.00000   360.00000     4.70179
     3.30000    90.00000   360.00000     4.70177    90.00000   360.00000     4.70177
     3.40000    90.00000   360.00000     4.70175    90.00000   360.00000     4.70175
     3.50000    90.00000   360.00000     4.70173    90.00000   360.00000     4.70173
     3.60000    90.00000   360.00000     4.70171    90.00000   360.00000     4.70171
     3.70000    90.00000   360.00000     4.70169    90.00000   360.00000     4.70169
     3.80000    90.00000   360.00000     4.70167    90.00000   360.00000     4.70167
     3.90000    90.00000   360.00000     4.70165    90.00000   360.00000     4.70165
     4.00000    90.00000   360.00000     4.70163    90.00000   360.00000     4.70163
     4.10000    90.00000   360.00000     4.70161    90.00000   360.00000     4.70161
     4.20000    90.00000   360.00000     4.70159    90.00000   360.00000     4.70159
     4.30000    90.00000   360.00000     4.70157    90.00000   360.00000     4.70157
     4.40000    90.00000   360.00000     4.70155    90.00000   360.00000     4.70155
     4.50000    90.00000   360.00000     4.70154    90.00000   360.00000     4.70154
     4.60000    90.00000   360.00000     4.70152    90.00000   360.00000     4.70152
     4.70000    90.00000   360.00000     4.70150    90.00000   360.00000     4.70150
     4.80000    90.00000   360.00000     4.70148    90.00000   360.00000     4.70148
     4.90000    90.00000   360.00000     4.70146    90.00000   360.00000     4.70146
     5.00000    90.00000   360.00000     4.70144    90.00000   360.00000     4.70144
     5.10000    90.00000   360.00000     4.70142    90.00000   360.00000     4.70142
     5.20000    90.00000   360.00000     4.70140    90.00000   360.00000     4.70140
     5.30000    90.00000   360.00000     4.70138    90.00000   360.00000     4.70138
     5.40000    90.00000   360.00000     4.70136    90.00000   360.00000     4.70136
     5.50000    90.00000   360.00000     4.70134    90.00000   360.00000     4.70134
     5.60000    90.00000   360.00000     4.70132    90.00000   360.00000     4.70132
     5.70000    90.00000   360.00000     4.70130    90.00000   360.00000     4.70130
     5.80000    90.00000   360.00000     4.70129    90.00000   360.00000     4.70129
     5.90000    90.00000   360.00000     4.70127    90.00000   360.00000     4.70127
     6.00000    90.00000   360.00000     4.70125    90.00000   360.00000     4.70125
     6.10000    90.00000   360.00000     4.70123    90.00000   360.00000     4.70123
     6.20000    90.00000   360.00000     4.70121    90.00000   360.00000     4.70121
     6.30000    90.00000   360.00000     4.70119    90.00000   360.00000     4.70119
     6.40000    90.00000   360.00000     4.70117    90.00000   360.00000     4.70117
     6.50000    90.00000   360.00000     4.70115    90.00000   360.00000     4.70115
     6.60000    90.00000   360.00000     4.70113    90.00000   360.00000     4.70113
     6.70000    90.00000   360.00000     4.70111    90.00000   360.00000     4.70111
     6.80000    90.00000   360.00000     4.70109    90.00000   360.00000     4.70109
     6.90000    90.00000   360.00000     4.70107    90.00000   360.00000     4.70107
     7.00000    90.00000   360.00000     4.70105    90.00000   360.00000     4.70105
     7.10000    90.00000   360.00000     4.70103    90.00000   360.00000     4.70103
     7.20000    90.00000   360.00000     4.70102    90.00000   360.00000     4.70102
     7.30000    90.00000   360.00000     4.70100    90.00000   360.00000     4.70100
     7.40000    90.00000   360.00000     4.70098    90.00000   360.00000     4.70098
     7.50000    90.00000   360.00000     4.70096    90.00000   360.00000     4.70096
     7.60000    90.00000   360.00000     4.70094    90.00000   360.00000     4.70094
     7.70000    90.00000   360.00000     4.70092    90.00000   360.00000     4.70092
     7.80000    90.00000   360.00000     4.70090    90.00000   360.00000     4.70090
     7.90000    90.00000   360.00000     4.70088    90.00000   360.00000     4.70088
     8.00000    90.00000   360.00000     4.70086    90.00000   360.00000     4.70086
     8.10000    90.00000   360.00000     4.70084    90.00000   360.00000     4.70084
     8.20000    90.00000   360.00000     4.70082    90.00000   360.00000     4.70082
     8.30000    90.00000   360.00000     4.70080    90.00000   360.00000     4.70080
     8.40000    90.00000   360.00000     4.70078    90.00000   360.00000     4.70078
     8.50000    90.00000   360.00000     4.70076    90.00000   360.00000     4.70076
     8.60000    90.00000   360.00000     4.70075    90.00000   360.00000     4.70075
     8.70000    90.00000   360.00000     4.70073    90.00000   360.00000     4.70073
     8.80000    90.00000   360.00000     4.70071    90.00000   360.00000     4.70071
     8.90000    90.00000   360.00000     4.70069    90.00000   360.00000     4.70069
     9.00000    90.00000   360.00000     4.70067    90.00000   360.00000     4.70067
     9.10000    90.00000   360.00000     4.70065    90.00000   360.00000     4.70065
     9.20000    90.00000   360.00000     4.70063    90.00000   360.00000     4.70063
     9.30000    90.00000   360.00000     4.70061    90.00000   360.00000     4.70061
     9.40000    90.00000   360.00000     4.70059    90.00000   360.00000     4.70059
     9.50000    90.00000   360.00000     4.70057    90.00000   360.00000     4.70057
     9.60000    90.00000   360.00000     4.70055    90.00000   360.00000     4.70055
     9.70000    90.00000   360.00000     4.70053    90.00000   360.00000     4.70053
     9.80000    90.00000   360.00000     4.70051    90.00000   360.00000     4.70051
     9.90000    90.00000   360.00000     4.70049    90.00000   360.00000     4.70049
    10.00000    90.00000   360.00000     4.70047    90.00000   360.00000     4.70047
    10.10000    90.00000   360.00000     4.70046    90.00000   360.00000     4.70046
    10.20000    90.00000   360.00000     4.70044    90.00000   360.00000     4.70044
    10.30000    90.00000   360.00000     4.70042    90.00000   360.00000     4.70042
    10.40000    90.00000   360.00000     4.70040    90.00000   360.00000     4.70040
    10.50000    90.00000   360.00000     4.70038    90.00000   360.00000     4.70038
    10.60000    90.00000   360.00000     4.70036    90.00000   360.00000     4.70036
    10.70000    90.00000   360.00000     4.70034    90.00000   360.00000     4.70034
    10.80000    90.00000   360.00000     4.70032    90.00000   360.00000     4.70032
    10.90000    90.00000   360.00000     4.70030    90.00000   360.00000     4.70030
    11.00000    90.00000   360.00000     4.70028    90.00000   360.00000     4.70028
    11.10000    90.00000   360.00000     4.70026    90.00000   360.00000     4.70026
    11.20000    90.00000   360.00000     4.70024    90.00000   360.00000     4.70024
    11.30000    90.00000   360.00000     4.70022    90.00000   360.00000     4.70022
    11.40000    90.00000   360.00000     4.70020    90.00000   360.00000     4.70020
    11.50000    90.00000   360.00000     4.70018    90.00000   360.00000     4.70018
    11.60000    90.00000   360.00000     4.70016    90.00000   360.00000     4.70016
    11.70000    90.00000   360.00000     4.70015    90.00000   360.00000     4.70015
    11.80000    90.00000   360.00000     4.70013    90.00000   360.00000     4.70013
    11.90000    90.00000   360.00000     4.70011    90.00000   360.00000     4.70011
    12.00000    90.00000   360.00000     4.70009    90.00000   360.00000     4.70009
    12.10000    90.00000   360.00000     4.70007    90.00000   360.00000     4.70007
    12.20000    90.00000   360.00000     4.70005    90.00000   360.00000     4.70005
    12.30000    90.00000   360.00000     4.70003    90.00000   360.00000     4.70003
    12.40000    90.00000   360.00000     4.70001    90.00000   360.00000     4.70001
    12.50000    90.00000   360.00000     4.69999    90.00000   360.00000     4.69999
    12.60000    90.00000   360.00000     4.69997    90.00000   360.00000     4.69997
    12.70000    90.00000   360.00000     4.69995    90.00000   360.00000     4.69995
    12.80000    90.00000   360.00000     4.69993    90.00000   360.00000     4.69993
    12.90000    90.00000   360.00000     4.69991    90.00000   360.00000     4.69991
    13.00000    90.00000   360.00000     4.69989    90.00000   360.00000     4.69989
    13.10000    90.00000   360.00000     4.69987    90.00000   360.00000     4.69987
    13.20000    90.00000   360.00000     4.69985    90.00000   360.00000     4.69985
    13.30000    90.00000   360.00000     4.69983    90.00000   360.00000     4.69983
    13.40000    90.00000   360.00000     4.69982    90.00000   360.00000     4.69982
    13.50000    90.00000   360.00000     4.69980    90.00000   360.00000     4.69980
    13.60000    90.00000   360.00000     4.69978    90.00000   360.00000     4.69978
    13.70000    90.00000   360.00000     4.69976    90.00000   360.00000     4.69976
    13.80000    90.00000   360.00000     4.69974    90.00000   360.00000     4.69974
    13.90000    90.00000   360.00000     4.69972    90.00000   360.00000     4.69972
    14.00000    90.00000   360.00000     4.69970    90.00000   360.00000     4.69970
    14.10000    90.00000   360.00000     4.69968    90.00000   360.00000     4.69968
    14.20000    90.00000   360.00000     4.69966    90.00000   360.00000     4.69966
    14.30000    90.00000   360.00000     4.69964    90.00000   360.00000     4.69964
    14.40000    90.00000   360.00000     4.69962    90.00000   360.00000     4.69962
    14.50000    90.00000   360.00000     4.69960    90.00000   360.00000     4.69960
    14.60000    90.00000   360.00000     4.69958    90.00000   360.00000     4.69958
    14.70000    90.00000   360.00000     4.69956    90.00000   360.00000     4.69956
    14.80000    90.00000   360.00000     4.69954    90.00000   360.00000     4.69954
    14.90000    90.00000   360.00000     4.69952    90.00000   360.00000     4.69952
    15.00000    90.00000   360.00000     4.69950    90.00000   360.00000     4.69950
    15.10000    90.00000   360.00000     4.69948    90.00000   360.00000     4.69948
    15.20000    90.00000   360.00000     4.69947    90.00000   360.00000     4.69947
    15.30000    90.00000   360.00000     4.69945    90.00000   360.00000     4.69945
    15.40000    90.00000   360.00000     4.69943    90.00000   360.00000     4.69943
    15.50000    90.00000   360.00000     4.69941    90.00000   360.00000     4.69941
    15.60000    90.00000   360.00000     4.69939    90.00000   360.00000     4.69939
    15.70000    90.00000   360.00000     4.69937    90.00000   360.00000     4.69937
    15.80000    90.00000   360.00000     4.69935    90.00000   360.00000     4.69935
    15.90000    90.00000   360.00000     4.69933    90.00000   360.00000     4.69933
    16.00000    90.00000   360.00000     4.69931    90.00000   360.00000     4.69931
    16.10000    90.00000   360.00000     4.69929    90.00000   360.00000     4.69929
    16.20000    90.00000   360.00000     4.69927    90.00000   360.00000     4.69927
    16.30000    90.00000   360.00000     4.69925    90.00000   360.00000     4.69925
    16.40000    90.00000   360.00000     4.69923    90.00000   360.00000     4.69923
    16.50000    90.00000   360.00000     4.69921    90.00000   360.00000     4.69921
    16.60000    90.00000   360.00000     4.69919    90.00000   360.00000     4.69919
    16.70000    90.00000   360.00000     4.69917    90.00000   360.00000     4.69917
    16.80000    90.00000   360.00000     4.69915    90.00000   360.00000     4.69915
    16.90000    90.00000   360.00000     4.69913    90.00000   360.00000     4.69913
    17.00000    90.00000   360.00000     4.69911    90.00000   360.00000     4.69911
    17.10000    90.00000   360.00000     4.69909    90.00000   360.00000     4.69909
    17.20000    90.00000   360.00000     4.69908    90.00000   360.00000     4.69908
    17.30000    90.00000   360.00000     4.69906    90.00000   360.00000     4.69906
    17.40000    90.00000   360.00000     4.69904    90.00000   360.00000     4.69904
    17.50000    90.00000   360.00000     4.69902    90.00000   360.00000     4.69902
    17.60000    90.00000   360.00000     4.69900    90.00000   360.00000     4.69900
    17.70000    90.00000   360.00000     4.69898    90.00000   360.00000     4.69898
    17.80000    90.00000   360.00000     4.69896    90.00000   360.00000     4.69896
    17.90000    90.00000   360.00000     4.69894    90.00000   360.00000     4.69894
    18.00000    90.00000   360.00000     4.69892    90.00000   360.00000     4.69892
    18.10000    90.00000   360.00000     4.69890    90.00000   360.00000     4.69890
    18.20000    90.00000   360.00000     4.69888    90.00000   360.00000     4.69888
    18.30000    90.00000   360.00000     4.69886    90.00000   360.00000     4.69886
    18.40000    90.00000   360.00000     4.69884    90.00000   360.00000     4.69884
    18.50000    90.00000   360.00000     4.69882    90.00000   360.00000     4.69882
    18.60000    90.00000   360.00000     4.69880    90.00000   360.00000     4.69880
    18.70000    90.00000   360.00000     4.69878    90.00000   360.00000     4.69878
    18.80000    90.00000   360.00000     4.69876    90.00000   360.00000     4.69876
    18.90000    90.00000   360.00000     4.69874    90.00000   360.00000     4.69874
    19.00000    90.00000   360.00000     4.69872    90.00000   360.00000     4.69872
    19.10000    90.00000   360.00000     4.69870    90.00000   360.00000     4.69870
    19.20000    90.00000   360.00000     4.69868    90.00000   360.00000     4.69868
    19.30000    90.00000   360.00000     4.69866    90.00000   360.00000     4.69866
    19.40000    90.00000   360.00000     4.69865    90.00000   360.00000     4.69865
    19.50000    90.00000   360.00000     4.69863    90.00000   360.00000     4.69863
    19.60000    90.00000   360.00000     4.69861    90.00000   360.00000     4.69861
    19.70000    90.00000   360.00000     4.69859    90.00000   360.00000     4.69859
    19.80000    90.00000   360.00000     4.69857    90.00000   360.00000     4.69857
    19.90000    90.00000   360.00000     4.69855    90.00000   360.00000     4.69855
    20.00000    90.00000   360.00000     4.69853    90.00000   360.00000     4.69853
    20.10000    90.00000   360.00000     4.69851    90.00000   360.00000     4.69851
    20.20000    90.00000   360.00000     4.69849    90.00000   360.00000     4.69849
    20.30000    90.00000   360.00000     4.69847    90.00000   360.00000     4.69847
    20.40000    90.00000   360.00000     4.69845    90.00000   360.00000     4.69845
    20.50000    90.00000   360.00000     4.69843    90.00000   360.00000     4.69843
    20.60000    90.00000   360.00000     4.69841    90.00000   360.00000     4.69841
    20.70000    90.00000   360.00000     4.69839    90.00000   360.00000     4.69839
    20.80000    90.00000   360.00000     4.69837    90.00000   360.00000     4.69837
    20.90000    90.00000   360.00000     4.69835    90.00000   360.00000     4.69835
    21.00000    90.00000   360.00000     4.69833    90.00000   360.00000     4.69833
    21.10000    90.00000   360.00000     4.69831    90.00000   360.00000     4.69831
    21.20000    90.00000   360.00000     4.69829    90.00000   360.00000     4.69829
    21.30000    90.00000   360.00000     4.69827    90.00000   360.00000     4.69827
    21.40000    90.00000   360.00000     4.69825    90.00000   360.00000     4.69825
    21.50000    90.00000   360.00000     4.69823    90.00000   360.00000     4.69823
    21.60000    90.00000   360.00000     4.69821    90.00000   360.00000     4.69821
    21.70000    90.00000   360.00000     4.69819    90.00000   360.00000     4.69819
    21.80000    90.00000   360.00000     4.69817    90.00000   360.00000     4.69817
    21.90000    90.00000   360.00000     4.69816    90.00000   360.00000     4.69816
    22.00000    90.00000   360.00000     4.69814    90.00000   360.00000     4.69814
    22.10000    90.00000   360.00000     4.69812    90.00000   360.00000     4.69812
    22.20000    90.00000   360.00000     4.69810    90.00000   360.00000     4.69810
    22.30000    90.00000   360.00000     4.69808    90.00000   360.00000     4.69808
    22.40000    90.00000   360.00000     4.69806    90.00000   360.00000     4.69806
    22.50000    90.00000   360.00000     4.69804    90.00000   360.00000     4.69804
    22.60000    90.00000   360.00000     4.69802    90.00000   360.00000     4.69802
    22.70000    90.00000   360.00000     4.69800    90.00000   360.00000     4.69800
    22.80000    90.00000   360.00000     4.69798    90.00000   360.00000     4.69798
    22.90000    90.00000   360.00000     4.69796    90.00000   360.00000     4.69796
    23.00000    90.00000   360.00000     4.69794    90.00000   360.00000     4.69794
    23.10000    90.00000   360.00000     4.69792    90.00000   360.00000     4.69792
    23.20000    90.00000   360.00000     4.69790    90.00000   360.00000     4.69790
    23.30000    90.00000   360.00000     4.69788    90.00000   360.00000     4.69788
    23.40000    90.00000   360.00000     4.69786    90.00000   360.00000     4.69786
    23.50000    90.00000   360.00000     4.69784    90.00000   360.00000     4.69784
    23.60000    90.00000   360.00000     4.69782    90.00000   360.00000     4.69782
    23.70000    90.00000   360.00000     4.69780    90.00000   360.00000     4.69780
    23.80000    90.00000   360.00000     4.69778    90.00000   360.00000     4.69778
    23.90000    90.00000   360.00000     4.69776    90.00000   360.00000     4.69776
    24.00000    90.00000   360.00000     4.69774    90.00000   360.00000     4.69774
    24.10000    90.00000   360.00000     4.69772    90.00000   360.00000     4.69772
    24.20000    90.00000   360.00000     4.69770    90.00000   360.00000     4.69770
    24.30000    90.00000   360.00000     4.69768    90.00000   360.00000     4.69768
    24.40000    90.00000   360.00000     4.69766    90.00000   360.00000     4.69766
    24.50000    90.00000   360.00000     4.69764    90.00000   360.00000     4.69764
    24.60000    90.00000   360.00000     4.69762    90.00000   360.00000     4.69762
    24.70000    90.00000   360.00000     4.69760    90.00000   360.00000     4.69760
    24.80000    90.00000   360.00000     4.69758    90.00000   360.00000     4.69758
    24.90000    90.00000   360.00000     4.69757    90.00000   360.00000     4.69757
    25.00000    90.00000   360.00000     4.69755    90.00000   360.00000     4.69755
    25.10000    90.00000   360.00000     4.69753    90.00000   360.00000     4.69753
    25.20000    90.00000   360.00000     4.69751    90.00000   360.00000     4.69751
    25.30000    90.00000   360.00000     4.69749    90.00000   360.00000     4.69749
    25.40000    90.00000   360.00000     4.69747    90.00000   360.00000     4.69747
    25.50000    90.00000   360.00000     4.69745    90.00000   360.00000     4.69745
    25.60000    90.00000   360.00000     4.69743    90.00000   360.00000     4.69743
    25.70000    90.00000   360.00000     4.69741    90.00000   360.00000     4.69741
    25.80000    90.00000   360.00000     4.69739    90.00000   360.00000     4.69739
    25.90000    90.00000   360.00000     4.69737    90.00000   360.00000     4.69737
    26.00000    90.00000   360.00000     4.69735    90.00000   360.00000     4.69735
    26.10000    90.00000   360.00000     4.69733    90.00000   360.00000     4.69733
    26.20000    90.00000   360.00000     4.69731    90.00000   360.00000     4.69731
    26.30000    90.00000   360.00000     4.69729    90.00000   360.00000     4.69729
    26.40000    90.00000   360.00000     4.69727    90.00000   360.00000     4.69727
    26.50000    90.00000   360.00000     4.69725    90.00000   360.00000     4.69725
    26.60000    90.00000   360.00000     4.69723    90.00000   360.00000     4.69723
    26.70000    90.00000   360.00000     4.69721    90.00000   360.00000     4.69721
    26.80000    90.00000   360.00000     4.69719    90.00000   360.00000     4.69719
    26.90000    90.00000   360.00000     4.69717    90.00000   360.00000     4.69717
    27.00000    90.00000   360.00000     4.69715    90.00000   360.00000     4.69715
    27.10000    90.00000   360.00000     4.69713    90.00000   360.00000     4.69713
    27.20000    90.00000   360.00000     4.69711    90.00000   360.00000     4.69711
    27.30000    90.00000   360.00000     4.69709    90.00000   360.00000     4.69709
    27.40000    90.00000   360.00000     4.69707    90.00000   360.00000     4.69707
    27.50000    90.00000   360.00000     4.69705    90.00000   360.00000     4.69705
    27.60000    90.00000   360.00000     4.69703    90.00000   360.00000     4.69703
    27.70000    90.00000   360.00000     4.69701    90.00000   360.00000     4.69701
    27.80000    90.00000   360.00000     4.69699    90.00000   360.00000     4.69699
    27.90000    90.00000   360.00000     4.69697    90.00000   360.00000     4.69697
    28.00000    90.00000   360.00000     4.69695    90.00000   360.00000     4.69695
    28.10000    90.00000   360.00000     4.69693    90.00000   360.00000     4.69693
    28.20000    90.00000   360.00000     4.69691    90.00000   360.00000     4.69691
    28.30000    90.00000   360.00000     4.69689    90.00000   360.00000     4.69689
    28.40000    90.00000   360.00000     4.69687    90.00000   360.00000     4.69687
    28.50000    90.00000   360.00000     4.69685    90.00000   360.00000     4.69685
    28.60000    90.00000   360.00000     4.69683    90.00000   360.00000     4.69683
    28.70000    90.00000   360.00000     4.69681    90.00000   360.00000     4.69681
    28.80000    90.00000   360.00000     4.69679    90.00000   360.00000     4.69679
    28.90000    90.00000   360.00000     4.69677    90.00000   360.00000     4.69677
    29.00000    90.00000   360.00000     4.69675    90.00000   360.00000     4.69675
    29.10000    90.00000   360.00000     4.69674    90.00000   360.00000     4.69674
    29.20000    90.00000   360.00000     4.69672    90.00000   360.00000     4.69672
    29.30000    90.00000   360.00000     4.69670    90.00000   360.00000     4.69670
    29.40000    90.00000   360.00000     4.69668    90.00000   360.00000     4.69668
    29.50000    90.00000   360.00000     4.69666    90.00000   360.00000     4.69666
    29.60000    90.00000   360.00000     4.69664    90.00000   360.00000     4.69664
    29.70000    90.00000   360.00000     4.69662    90.00000   360.00000     4.69662
    29.80000    90.00000   360.00000     4.69660    90.00000   360.00000     4.69660
    29.90000    90.00000   360.00000     4.69658    90.00000   360.00000     4.69658
    30.00000    90.00000   360.00000     4.69656    90.00000   360.00000     4.69656
    30.10000    90.00000   360.00000     4.69654    90.00000   360.00000     4.69654
    30.20000    90.00000   360.00000     4.69652    90.00000   360.00000     4.69652
    30.30000    90.00000   360.00000     4.69650    90.00000   360.00000     4.69650
    30.40000    90.00000   360.00000     4.69648    90.00000   360.00000     4.69648
    30.50000    90.00000   360.00000     4.69646    90.00000   360.00000     4.69646
    30.60000    90.00000   360.00000     4.69644    90.00000   360.00000     4.69644
    30.70000    90.00000   360.00000     4.69642    90.00000   360.00000     4.69642
    30.80000    90.00000   360.00000     4.69640    90.00000   360.00000     4.69640
    30.90000    90.00000   360.00000     4.69638    90.00000   360.00000     4.69638
    31.00000    90.00000   360.00000     4.69636    90.00000   360.00000     4.69636
    31.10000    90.00000   360.00000     4.69634    90.00000   360.00000     4.69634
    31.20000    90.00000   360.00000     4.69632    90.00000   360.00000     4.69632
    31.30000    90.00000   360.00000     4.69630    90.00000   360.00000     4.69630
    31.40000    90.00000   360.00000     4.69628    90.00000   360.00000     4.69628
    31.50000    90.00000   360.00000     4.69626    90.00000   360.00000     4.69626
    31.60000    90.00000   360.00000     4.69624    90.00000   360.00000     4.69624
    31.70000    90.00000   360.00000     4.69622    90.00000   360.00000     4.69622
    31.80000    90.00000   360.00000     4.69620    90.00000   360.00000     4.69620
    31.90000    90.00000   360.00000     4.69618    90.00000   360.00000     4.69618
    32.00000    90.00000   360.00000     4.69616    90.00000   360.00000     4.69616
    32.10000    90.00000   360.00000     4.69614    90.00000   360.00000     4.69614
    32.20000    90.00000   360.00000     4.69612    90.00000   360.00000     4.69612
    32.30000    90.00000   360.00000     4.69610    90.00000   360.00000     4.69610
    32.40000    90.00000   360.00000     4.69608    90.00000   360.00000     4.69608
    32.50000    90.00000   360.00000     4.69606    90.00000   360.00000     4.69606
    32.60000    90.00000   360.00000     4.69604    90.00000   360.00000     4.69604
    32.70000    90.00000   360.00000     4.69602    90.00000   360.00000     4.69602
    32.80000    90.00000   360.00000     4.69600    90.00000   360.00000     4.69600
    32.90000    90.00000   360.00000     4.69598    90.00000   360.00000     4.69598
    33.00000    90.00000   360.00000     4.69596    90.00000   360.00000     4.69596
    33.10000    90.00000   360.00000     4.69594    90.00000   360.00000     4.69594
    33.20000    90.00000   360.00000     4.69592    90.00000   360.00000     4.69592
    33.30000    90.00000   360.00000     4.69590    90.00000   360.00000     4.69590
    33.40000    90.00000   360.00000     4.69588    90.00000   360.00000     4.69588
    33.50000    90.00000   360.00000     4.69586    90.00000   360.00000     4.69586
    33.60000    90.00000   360.00000     4.69584    90.00000   360.00000     4.69584
    33.70000    90.00000   360.00000     4.69582    90.00000   360.00000     4.69582
    33.80000    90.00000   360.00000     4.69580    90.00000   360.00000     4.69580
    33.90000    90.00000   360.00000     4.69578    90.00000   360.00000     4.69578
    34.00000    90.00000   360.00000     4.69576    90.00000   360.00000     4.69576
    34.10000    90.00000   360.00000     4.69574    90.00000   360.00000     4.69574
    34.20000    90.00000   360.00000     4.69572    90.00000   360.00000     4.69572
    34.30000    90.00000   360.00000     4.69570    90.00000   360.00000     4.69570
    34.40000    90.00000   360.00000     4.69568    90.00000   360.00000     4.69568
    34.50000    90.00000   360.00000     4.69566    90.00000   360.00000     4.69566
    34.60000    90.00000   360.00000     4.69564    90.00000   360.00000     4.69564
    34.70000    90.00000   360.00000     4.69562    90.00000   360.00000     4.69562
    34.80000    90.00000   360.00000     4.69560    90.00000   360.00000     4.69560
    34.90000    90.00000   360.00000     4.69558    90.00000   360.00000     4.69558
    35.00000    90.00000   360.00000     4.69556    90.00000   360.00000     4.69556
    35.10000    90.00000   360.00000     4.69554    90.00000   360.00000     4.69554
    35.20000    90.00000   360.00000     4.69552    90.00000   360.00000     4.69552
    35.30000    90.00000   360.00000     4.69550    90.00000   360.00000     4.69550
    35.40000    90.00000   360.00000     4.69548    90.00000   360.00000     4.69548
    35.50000    90.00000   360.00000     4.69546    90.00000   360.00000     4.69546
    35.60000    90.00000   360.00000     4.69544    90.00000   360.00000     4.69544
    35.70000    90.00000   360.00000     4.69542    90.00000   360.00000     4.69542
    35.80000    90.00000   360.00000     4.69540    90.00000   360.00000     4.69540
    35.90000    90.00000   360.00000     4.69538    90.00000   360.00000     4.69538
    36.00000    90.00000   360.00000     4.69536    90.00000   360.00000     4.69536
    36.10000    90.00000   360.00000     4.69534    90.00000   360.00000     4.69534
    36.20000    90.00000   360.00000     4.69532    90.00000   360.00000     4.69532
    36.30000    90.00000   360.00000     4.69530    90.00000   360.00000     4.69530
    36.40000    90.00000   360.00000     4.69528    90.00000   360.00000     4.69528
    36.50000    90.00000   360.00000     4.69526    90.00000   360.00000     4.69526
    36.60000    90.00000   360.00000     4.69524    90.00000   360.00000     4.69524
    36.70000    90.00000   360.00000     4.69522    90.00000   360.00000     4.69522
    36.80000    90.00000   360.00000     4.69520    90.00000   360.00000     4.69520
    36.90000    90.00000   360.00000     4.69518    90.00000   360.00000     4.69518
    37.00000    90.00000   360.00000     4.69516    90.00000   360.00000     4.69516
    37.10000    90.00000   360.00000     4.69514    90.00000   360.00000     4.69514
    37.20000    90.00000   360.00000     4.69512    90.00000   360.00000     4.69512
    37.30000    90.00000   360.00000     4.69510    90.00000   360.00000     4.69510
    37.40000    90.00000   360.00000     4.69508    90.00000   360.00000     4.69508
    37.50000    90.00000   360.00000     4.69506    90.00000   360.00000     4.69506
    37.60000    90.00000   360.00000     4.69504    90.00000   360.00000     4.69504
    37.70000    90.00000   360.00000     4.69502    90.00000   360.00000     4.69502
    37.80000    90.00000   360.00000     4.69500    90.00000   360.00000     4.69500
    37.90000    90.00000   360.00000     4.69498    90.00000   360.00000     4.69498
    38.00000    90.00000   360.00000     4.69496    90.00000   360.00000     4.69496
    38.10000    90.00000   360.00000     4.69494    90.00000   360.00000     4.69494
    38.20000    90.00000   360.00000     4.69492    90.00000   360.00000     4.69492
    38.30000    90.00000   360.00000     4.69490    90.00000   360.00000     4.69490
    38.40000    90.00000   360.00000     4.69488    90.00000   360.00000     4.69488
    38.50000    90.00000   360.00000     4.69486    90.00000   360.00000     4.69486
    38.60000    90.00000   360.00000     4.69484    90.00000   360.00000     4.69484
    38.70000    90.00000   360.00000     4.69482    90.00000   360.00000     4.69482
    38.80000    90.00000   360.00000     4.69480    90.00000   360.00000     4.69480
    38.90000    90.00000   360.00000     4.69478    90.00000   360.00000     4.69478
    39.00000    90.00000   360.00000     4.69476    90.00000   360.00000     4.69476
    39.10000    90.00000   360.00000     4.69474    90.00000   360.00000     4.69474
    39.20000    90.00000   360.00000     4.69472    90.00000   360.00000     4.69472
    39.30000    90.00000   360.00000     4.69470    90.00000   360.00000     4.69470
    39.40000    90.00000   360.00000     4.69468    90.00000   360.00000     4.69468
    39.50000    90.00000   360.00000     4.69466    90.00000   360.00000     4.69466
    39.60000    90.00000   360.00000     4.69464    90.00000   360.00000     4.69464
    39.70000    90.00000   360.00000     4.69462    90.00000   360.00000     4.69462
    39.80000    90.00000   360.00000     4.69460    90.00000   360.00000     4.69460
    39.90000    90.00000   360.00000     4.69458    90.00000   360.00000     4.69458
    40.00000    90.00000   360.00000     4.69456    90.00000   360.00000     4.69456
