 # applied field (T), theta (degree), phi (degree), abs for RE 3-4
     0.00000    90.00000   258.32949     0.14556    90.00000   191.67051     0.14556
     0.10000    90.00000   201.89803     0.25042    90.00000   182.14355     0.17420
     0.20000    90.00000   180.00000     0.27148    90.00000   180.00000     0.17650
     0.30000    90.00000   180.00000     0.27131    90.00000   180.00000     0.17637
     0.40000    90.00000   180.00000     0.27115    90.00000   180.00000     0.17624
     0.50000    90.00000   180.00000     0.27098    90.00000   180.00000     0.17610
     0.60000    90.00000   180.00000     0.27081    90.00000   180.00000     0.17597
     0.70000    90.00000   180.00000     0.27065    90.00000   180.00000     0.17584
     0.80000    90.00000   180.00000     0.27048    90.00000   180.00000     0.17571
     0.90000    90.00000   180.00000     0.27031    90.00000   180.00000     0.17557
     1.00000    90.00000   180.00000     0.27015    90.00000   180.00000     0.17544
     1.10000    90.00000   180.00000     0.26998    90.00000   180.00000     0.17531
     1.20000    90.00000   180.00000     0.26981    90.00000   180.00000     0.17518
     1.30000    90.00000   180.00000     0.26965    90.00000   180.00000     0.17504
     1.40000    90.00000   180.00000     0.26948    90.00000   180.00000     0.17491
     1.50000    90.00000   180.00000     0.26931    90.00000   180.00000     0.17478
     1.60000    90.00000   180.00000     0.26915    90.00000   180.00000     0.17465
     1.70000    90.00000   180.00000     0.26898    90.00000   180.00000     0.17451
     1.80000    90.00000   180.00000     0.26881    90.00000   180.00000     0.17438
     1.90000    90.00000   180.00000     0.26865    90.00000   180.00000     0.17425
     2.00000    90.00000   180.00000     0.26848    90.00000   180.00000     0.17412
     2.10000    90.00000   180.00000     0.26831    90.00000   180.00000     0.17398
     2.20000    90.00000   180.00000     0.26815    90.00000   180.00000     0.17385
     2.30000    90.00000   180.00000     0.26798    90.00000   180.00000     0.17372
     2.40000    90.00000   180.00000     0.26782    90.00000   180.00000     0.17359
     2.50000    90.00000   180.00000     0.26765    90.00000   180.00000     0.17346
     2.60000    90.00000   180.00000     0.26748    90.00000   180.00000     0.17332
     2.70000    90.00000   180.00000     0.26732    90.00000   180.00000     0.17319
     2.80000    90.00000   180.00000     0.26715    90.00000   180.00000     0.17306
     2.90000    90.00000   180.00000     0.26698    90.00000   180.00000     0.17293
     3.00000    90.00000   180.00000     0.26682    90.00000   180.00000     0.17279
     3.10000    90.00000   180.00000     0.26665    90.00000   180.00000     0.17266
     3.20000    90.00000   180.00000     0.26649    90.00000   180.00000     0.17253
     3.30000    90.00000   180.00000     0.26632    90.00000   180.00000     0.17240
     3.40000    90.00000   180.00000     0.26615    90.00000   180.00000     0.17227
     3.50000    90.00000   180.00000     0.26599    90.00000   180.00000     0.17213
     3.60000    90.00000   180.00000     0.26582    90.00000   180.00000     0.17200
     3.70000    90.00000   180.00000     0.26566    90.00000   180.00000     0.17187
     3.80000    90.00000   180.00000     0.26549    90.00000   180.00000     0.17174
     3.90000    90.00000   180.00000     0.26532    90.00000   180.00000     0.17160
     4.00000    90.00000   180.00000     0.26516    90.00000   180.00000     0.17147
     4.10000    90.00000   180.00000     0.26499    90.00000   180.00000     0.17134
     4.20000    90.00000   180.00000     0.26483    90.00000   180.00000     0.17121
     4.30000    90.00000   180.00000     0.26466    90.00000   180.00000     0.17108
     4.40000    90.00000   180.00000     0.26449    90.00000   180.00000     0.17094
     4.50000    90.00000   180.00000     0.26433    90.00000   180.00000     0.17081
     4.60000    90.00000   180.00000     0.26416    90.00000   180.00000     0.17068
     4.70000    90.00000   180.00000     0.26400    90.00000   180.00000     0.17055
     4.80000    90.00000   180.00000     0.26383    90.00000   180.00000     0.17042
     4.90000    90.00000   180.00000     0.26367    90.00000   180.00000     0.17028
     5.00000    90.00000   180.00000     0.26350    90.00000   180.00000     0.17015
     5.10000    90.00000   180.00000     0.26333    90.00000   180.00000     0.17002
     5.20000    90.00000   180.00000     0.26317    90.00000   180.00000     0.16989
     5.30000    90.00000   180.00000     0.26300    90.00000   180.00000     0.16976
     5.40000    90.00000   180.00000     0.26284    90.00000   180.00000     0.16962
     5.50000    90.00000   180.00000     0.26267    90.00000   180.00000     0.16949
     5.60000    90.00000   180.00000     0.26251    90.00000   180.00000     0.16936
     5.70000    90.00000   180.00000     0.26234    90.00000   180.00000     0.16923
     5.80000    90.00000   180.00000     0.26218    90.00000   180.00000     0.16910
     5.90000    90.00000   180.00000     0.26201    90.00000   180.00000     0.16897
     6.00000    90.00000   180.00000     0.26185    90.00000   180.00000     0.16883
     6.10000    90.00000   180.00000     0.26168    90.00000   180.00000     0.16870
     6.20000    90.00000   180.00000     0.26151    90.00000   180.00000     0.16857
     6.30000    90.00000   180.00000     0.26135    90.00000   180.00000     0.16844
     6.40000    90.00000   180.00000     0.26118    90.00000   180.00000     0.16831
     6.50000    90.00000   180.00000     0.26102    90.00000   180.00000     0.16817
     6.60000    90.00000   180.00000     0.26085    90.00000   180.00000     0.16804
     6.70000    90.00000   180.00000     0.26069    90.00000   180.00000     0.16791
     6.80000    90.00000   180.00000     0.26052    90.00000   180.00000     0.16778
     6.90000    90.00000   180.00000     0.26036    90.00000   180.00000     0.16765
     7.00000    90.00000   180.00000     0.26019    90.00000   180.00000     0.16752
     7.10000    90.00000   180.00000     0.26003    90.00000   180.00000     0.16738
     7.20000    90.00000   180.00000     0.25986    90.00000   180.00000     0.16725
     7.30000    90.00000   180.00000     0.25970    90.00000   180.00000     0.16712
     7.40000    90.00000   180.00000     0.25953    90.00000   180.00000     0.16699
     7.50000    90.00000   180.00000     0.25937    90.00000   180.00000     0.16686
     7.60000    90.00000   180.00000     0.25920    90.00000   180.00000     0.16673
     7.70000    90.00000   180.00000     0.25904    90.00000   180.00000     0.16659
     7.80000    90.00000   180.00000     0.25887    90.00000   180.00000     0.16646
     7.90000    90.00000   180.00000     0.25871    90.00000   180.00000     0.16633
     8.00000    90.00000   180.00000     0.25854    90.00000   180.00000     0.16620
     8.10000    90.00000   180.00000     0.25838    90.00000   180.00000     0.16607
     8.20000    90.00000   180.00000     0.25821    90.00000   180.00000     0.16594
     8.30000    90.00000   180.00000     0.25805    90.00000   180.00000     0.16580
     8.40000    90.00000   180.00000     0.25788    90.00000   180.00000     0.16567
     8.50000    90.00000   180.00000     0.25772    90.00000   180.00000     0.16554
     8.60000    90.00000   180.00000     0.25755    90.00000   180.00000     0.16541
     8.70000    90.00000   180.00000     0.25739    90.00000   180.00000     0.16528
     8.80000    90.00000   180.00000     0.25722    90.00000   180.00000     0.16515
     8.90000    90.00000   180.00000     0.25706    90.00000   180.00000     0.16501
     9.00000    90.00000   180.00000     0.25689    90.00000   180.00000     0.16488
     9.10000    90.00000   180.00000     0.25673    90.00000   180.00000     0.16475
     9.20000    90.00000   180.00000     0.25656    90.00000   180.00000     0.16462
     9.30000    90.00000   180.00000     0.25640    90.00000   180.00000     0.16449
     9.40000    90.00000   180.00000     0.25623    90.00000   180.00000     0.16436
     9.50000    90.00000   180.00000     0.25607    90.00000   180.00000     0.16423
     9.60000    90.00000   180.00000     0.25591    90.00000   180.00000     0.16409
     9.70000    90.00000   180.00000     0.25574    90.00000   180.00000     0.16396
     9.80000    90.00000   180.00000     0.25558    90.00000   180.00000     0.16383
     9.90000    90.00000   180.00000     0.25541    90.00000   180.00000     0.16370
    10.00000    90.00000   180.00000     0.25525    90.00000   180.00000     0.16357
    10.10000    90.00000   180.00000     0.25508    90.00000   180.00000     0.16344
    10.20000    90.00000   180.00000     0.25492    90.00000   180.00000     0.16331
    10.30000    90.00000   180.00000     0.25475    90.00000   180.00000     0.16317
    10.40000    90.00000   180.00000     0.25459    90.00000   180.00000     0.16304
    10.50000    90.00000   180.00000     0.25443    90.00000   180.00000     0.16291
    10.60000    90.00000   180.00000     0.25426    90.00000   180.00000     0.16278
    10.70000    90.00000   180.00000     0.25410    90.00000   180.00000     0.16265
    10.80000    90.00000   180.00000     0.25393    90.00000   180.00000     0.16252
    10.90000    90.00000   180.00000     0.25377    90.00000   180.00000     0.16239
    11.00000    90.00000   180.00000     0.25360    90.00000   180.00000     0.16225
    11.10000    90.00000   180.00000     0.25344    90.00000   180.00000     0.16212
    11.20000    90.00000   180.00000     0.25328    90.00000   180.00000     0.16199
    11.30000    90.00000   180.00000     0.25311    90.00000   180.00000     0.16186
    11.40000    90.00000   180.00000     0.25295    90.00000   180.00000     0.16173
    11.50000    90.00000   180.00000     0.25278    90.00000   180.00000     0.16160
    11.60000    90.00000   180.00000     0.25262    90.00000   180.00000     0.16147
    11.70000    90.00000   180.00000     0.25245    90.00000   180.00000     0.16134
    11.80000    90.00000   180.00000     0.25229    90.00000   180.00000     0.16121
    11.90000    90.00000   180.00000     0.25213    90.00000   180.00000     0.16107
    12.00000    90.00000   180.00000     0.25196    90.00000   180.00000     0.16094
    12.10000    90.00000   180.00000     0.25180    90.00000   180.00000     0.16081
    12.20000    90.00000   180.00000     0.25163    90.00000   180.00000     0.16068
    12.30000    90.00000   180.00000     0.25147    90.00000   180.00000     0.16055
    12.40000    90.00000   180.00000     0.25131    90.00000   180.00000     0.16042
    12.50000    90.00000   180.00000     0.25114    90.00000   180.00000     0.16029
    12.60000    90.00000   180.00000     0.25098    90.00000   180.00000     0.16016
    12.70000    90.00000   180.00000     0.25082    90.00000   180.00000     0.16002
    12.80000    90.00000   180.00000     0.25065    90.00000   180.00000     0.15989
    12.90000    90.00000   180.00000     0.25049    90.00000   180.00000     0.15976
    13.00000    90.00000   180.00000     0.25032    90.00000   180.00000     0.15963
    13.10000    90.00000   180.00000     0.25016    90.00000   180.00000     0.15950
    13.20000    90.00000   180.00000     0.25000    90.00000   180.00000     0.15937
    13.30000    90.00000   180.00000     0.24983    90.00000   180.00000     0.15924
    13.40000    90.00000   180.00000     0.24967    90.00000   180.00000     0.15911
    13.50000    90.00000   180.00000     0.24951    90.00000   180.00000     0.15898
    13.60000    90.00000   180.00000     0.24934    90.00000   180.00000     0.15885
    13.70000    90.00000   180.00000     0.24918    90.00000   180.00000     0.15871
    13.80000    90.00000   180.00000     0.24901    90.00000   180.00000     0.15858
    13.90000    90.00000   180.00000     0.24885    90.00000   180.00000     0.15845
    14.00000    90.00000   180.00000     0.24869    90.00000   180.00000     0.15832
    14.10000    90.00000   180.00000     0.24852    90.00000   180.00000     0.15819
    14.20000    90.00000   180.00000     0.24836    90.00000   180.00000     0.15806
    14.30000    90.00000   180.00000     0.24820    90.00000   180.00000     0.15793
    14.40000    90.00000   180.00000     0.24803    90.00000   180.00000     0.15780
    14.50000    90.00000   180.00000     0.24787    90.00000   180.00000     0.15767
    14.60000    90.00000   180.00000     0.24771    90.00000   180.00000     0.15754
    14.70000    90.00000   180.00000     0.24754    90.00000   180.00000     0.15741
    14.80000    90.00000   180.00000     0.24738    90.00000   180.00000     0.15727
    14.90000    90.00000   180.00000     0.24722    90.00000   180.00000     0.15714
    15.00000    90.00000   180.00000     0.24705    90.00000   180.00000     0.15701
    15.10000    90.00000   180.00000     0.24689    90.00000   180.00000     0.15688
    15.20000    90.00000   180.00000     0.24673    90.00000   180.00000     0.15675
    15.30000    90.00000   180.00000     0.24656    90.00000   180.00000     0.15662
    15.40000    90.00000   180.00000     0.24640    90.00000   180.00000     0.15649
    15.50000    90.00000   180.00000     0.24624    90.00000   180.00000     0.15636
    15.60000    90.00000   180.00000     0.24607    90.00000   180.00000     0.15623
    15.70000    90.00000   180.00000     0.24591    90.00000   180.00000     0.15610
    15.80000    90.00000   180.00000     0.24575    90.00000   180.00000     0.15597
    15.90000    90.00000   180.00000     0.24558    90.00000   180.00000     0.15584
    16.00000    90.00000   180.00000     0.24542    90.00000   180.00000     0.15571
    16.10000    90.00000   180.00000     0.24526    90.00000   180.00000     0.15557
    16.20000    90.00000   180.00000     0.24509    90.00000   180.00000     0.15544
    16.30000    90.00000   180.00000     0.24493    90.00000   180.00000     0.15531
    16.40000    90.00000   180.00000     0.24477    90.00000   180.00000     0.15518
    16.50000    90.00000   180.00000     0.24460    90.00000   180.00000     0.15505
    16.60000    90.00000   180.00000     0.24444    90.00000   180.00000     0.15492
    16.70000    90.00000   180.00000     0.24428    90.00000   180.00000     0.15479
    16.80000    90.00000   180.00000     0.24411    90.00000   180.00000     0.15466
    16.90000    90.00000   180.00000     0.24395    90.00000   180.00000     0.15453
    17.00000    90.00000   180.00000     0.24379    90.00000   180.00000     0.15440
    17.10000    90.00000   180.00000     0.24363    90.00000   180.00000     0.15427
    17.20000    90.00000   180.00000     0.24346    90.00000   180.00000     0.15414
    17.30000    90.00000   180.00000     0.24330    90.00000   180.00000     0.15401
    17.40000    90.00000   180.00000     0.24314    90.00000   180.00000     0.15388
    17.50000    90.00000   180.00000     0.24297    90.00000   180.00000     0.15375
    17.60000    90.00000   180.00000     0.24281    90.00000   180.00000     0.15362
    17.70000    90.00000   180.00000     0.24265    90.00000   180.00000     0.15349
    17.80000    90.00000   180.00000     0.24249    90.00000   180.00000     0.15335
    17.90000    90.00000   180.00000     0.24232    90.00000   180.00000     0.15322
    18.00000    90.00000   180.00000     0.24216    90.00000   180.00000     0.15309
    18.10000    90.00000   180.00000     0.24200    90.00000   180.00000     0.15296
    18.20000    90.00000   180.00000     0.24184    90.00000   180.00000     0.15283
    18.30000    90.00000   180.00000     0.24167    90.00000   180.00000     0.15270
    18.40000    90.00000   180.00000     0.24151    90.00000   180.00000     0.15257
    18.50000    90.00000   180.00000     0.24135    90.00000   180.00000     0.15244
    18.60000    90.00000   180.00000     0.24119    90.00000   180.00000     0.15231
    18.70000    90.00000   180.00000     0.24102    90.00000   180.00000     0.15218
    18.80000    90.00000   180.00000     0.24086    90.00000   180.00000     0.15205
    18.90000    90.00000   180.00000     0.24070    90.00000   180.00000     0.15192
    19.00000    90.00000   180.00000     0.24054    90.00000   180.00000     0.15179
    19.10000    90.00000   180.00000     0.24037    90.00000   180.00000     0.15166
    19.20000    90.00000   180.00000     0.24021    90.00000   180.00000     0.15153
    19.30000    90.00000   180.00000     0.24005    90.00000   180.00000     0.15140
    19.40000    90.00000   180.00000     0.23989    90.00000   180.00000     0.15127
    19.50000    90.00000   180.00000     0.23972    90.00000   180.00000     0.15114
    19.60000    90.00000   180.00000     0.23956    90.00000   180.00000     0.15101
    19.70000    90.00000   180.00000     0.23940    90.00000   180.00000     0.15088
    19.80000    90.00000   180.00000     0.23924    90.00000   180.00000     0.15075
    19.90000    90.00000   180.00000     0.23907    90.00000   180.00000     0.15062
    20.00000    90.00000   180.00000     0.23891    90.00000   180.00000     0.15049
    20.10000    90.00000   180.00000     0.23875    90.00000   180.00000     0.15036
    20.20000    90.00000   180.00000     0.23859    90.00000   180.00000     0.15023
    20.30000    90.00000   180.00000     0.23842    90.00000   180.00000     0.15010
    20.40000    90.00000   180.00000     0.23826    90.00000   180.00000     0.14997
    20.50000    90.00000   180.00000     0.23810    90.00000   180.00000     0.14984
    20.60000    90.00000   180.00000     0.23794    90.00000   180.00000     0.14970
    20.70000    90.00000   180.00000     0.23778    90.00000   180.00000     0.14957
    20.80000    90.00000   180.00000     0.23761    90.00000   180.00000     0.14944
    20.90000    90.00000   180.00000     0.23745    90.00000   180.00000     0.14931
    21.00000    90.00000   180.00000     0.23729    90.00000   180.00000     0.14918
    21.10000    90.00000   180.00000     0.23713    90.00000   180.00000     0.14905
    21.20000    90.00000   180.00000     0.23697    90.00000   180.00000     0.14892
    21.30000    90.00000   180.00000     0.23680    90.00000   180.00000     0.14879
    21.40000    90.00000   180.00000     0.23664    90.00000   180.00000     0.14866
    21.50000    90.00000   180.00000     0.23648    90.00000   180.00000     0.14853
    21.60000    90.00000   180.00000     0.23632    90.00000   180.00000     0.14840
    21.70000    90.00000   180.00000     0.23615    90.00000   180.00000     0.14827
    21.80000    90.00000   180.00000     0.23599    90.00000   180.00000     0.14814
    21.90000    90.00000   180.00000     0.23583    90.00000   180.00000     0.14801
    22.00000    90.00000   180.00000     0.23567    90.00000   180.00000     0.14788
    22.10000    90.00000   180.00000     0.23551    90.00000   180.00000     0.14775
    22.20000    90.00000   180.00000     0.23535    90.00000   180.00000     0.14762
    22.30000    90.00000   180.00000     0.23518    90.00000   180.00000     0.14749
    22.40000    90.00000   180.00000     0.23502    90.00000   180.00000     0.14736
    22.50000    90.00000   180.00000     0.23486    90.00000   180.00000     0.14723
    22.60000    90.00000   180.00000     0.23470    90.00000   180.00000     0.14710
    22.70000    90.00000   180.00000     0.23454    90.00000   180.00000     0.14697
    22.80000    90.00000   180.00000     0.23437    90.00000   180.00000     0.14684
    22.90000    90.00000   180.00000     0.23421    90.00000   180.00000     0.14671
    23.00000    90.00000   180.00000     0.23405    90.00000   180.00000     0.14658
    23.10000    90.00000   180.00000     0.23389    90.00000   180.00000     0.14645
    23.20000    90.00000   180.00000     0.23373    90.00000   180.00000     0.14632
    23.30000    90.00000   180.00000     0.23357    90.00000   180.00000     0.14619
    23.40000    90.00000   180.00000     0.23340    90.00000   180.00000     0.14606
    23.50000    90.00000   180.00000     0.23324    90.00000   180.00000     0.14593
    23.60000    90.00000   180.00000     0.23308    90.00000   180.00000     0.14580
    23.70000    90.00000   180.00000     0.23292    90.00000   180.00000     0.14567
    23.80000    90.00000   180.00000     0.23276    90.00000   180.00000     0.14554
    23.90000    90.00000   180.00000     0.23259    90.00000   180.00000     0.14541
    24.00000    90.00000   180.00000     0.23243    90.00000   180.00000     0.14528
    24.10000    90.00000   180.00000     0.23227    90.00000   180.00000     0.14516
    24.20000    90.00000   180.00000     0.23211    90.00000   180.00000     0.14503
    24.30000    90.00000   180.00000     0.23195    90.00000   180.00000     0.14490
    24.40000    90.00000   180.00000     0.23179    90.00000   180.00000     0.14477
    24.50000    90.00000   180.00000     0.23163    90.00000   180.00000     0.14464
    24.60000    90.00000   180.00000     0.23146    90.00000   180.00000     0.14451
    24.70000    90.00000   180.00000     0.23130    90.00000   180.00000     0.14438
    24.80000    90.00000   180.00000     0.23114    90.00000   180.00000     0.14425
    24.90000    90.00000   180.00000     0.23098    90.00000   180.00000     0.14412
    25.00000    90.00000   180.00000     0.23082    90.00000   180.00000     0.14399
    25.10000    90.00000   180.00000     0.23066    90.00000   180.00000     0.14386
    25.20000    90.00000   180.00000     0.23049    90.00000   180.00000     0.14373
    25.30000    90.00000   180.00000     0.23033    90.00000   180.00000     0.14360
    25.40000    90.00000   180.00000     0.23017    90.00000   180.00000     0.14347
    25.50000    90.00000   180.00000     0.23001    90.00000   180.00000     0.14334
    25.60000    90.00000   180.00000     0.22985    90.00000   180.00000     0.14321
    25.70000    90.00000   180.00000     0.22969    90.00000   180.00000     0.14308
    25.80000    90.00000   180.00000     0.22953    90.00000   180.00000     0.14295
    25.90000    90.00000   180.00000     0.22936    90.00000   180.00000     0.14282
    26.00000    90.00000   180.00000     0.22920    90.00000   180.00000     0.14269
    26.10000    90.00000   180.00000     0.22904    90.00000   180.00000     0.14256
    26.20000    90.00000   180.00000     0.22888    90.00000   180.00000     0.14243
    26.30000    90.00000   180.00000     0.22872    90.00000   180.00000     0.14230
    26.40000    90.00000   180.00000     0.22856    90.00000   180.00000     0.14217
    26.50000    90.00000   180.00000     0.22840    90.00000   180.00000     0.14204
    26.60000    90.00000   180.00000     0.22823    90.00000   180.00000     0.14191
    26.70000    90.00000   180.00000     0.22807    90.00000   180.00000     0.14178
    26.80000    90.00000   180.00000     0.22791    90.00000   180.00000     0.14165
    26.90000    90.00000   180.00000     0.22775    90.00000   180.00000     0.14153
    27.00000    90.00000   180.00000     0.22759    90.00000   180.00000     0.14140
    27.10000    90.00000   180.00000     0.22743    90.00000   180.00000     0.14127
    27.20000    90.00000   180.00000     0.22726    90.00000   180.00000     0.14114
    27.30000    90.00000   180.00000     0.22710    90.00000   180.00000     0.14101
    27.40000    90.00000   180.00000     0.22694    90.00000   180.00000     0.14088
    27.50000    90.00000   180.00000     0.22678    90.00000   180.00000     0.14075
    27.60000    90.00000   180.00000     0.22662    90.00000   180.00000     0.14062
    27.70000    90.00000   180.00000     0.22646    90.00000   180.00000     0.14049
    27.80000    90.00000   180.00000     0.22630    90.00000   180.00000     0.14036
    27.90000    90.00000   180.00000     0.22614    90.00000   180.00000     0.14023
    28.00000    90.00000   180.00000     0.22597    90.00000   180.00000     0.14010
    28.10000    90.00000   180.00000     0.22581    90.00000   180.00000     0.13997
    28.20000    90.00000   180.00000     0.22565    90.00000   180.00000     0.13984
    28.30000    90.00000   180.00000     0.22549    90.00000   180.00000     0.13971
    28.40000    90.00000   180.00000     0.22533    90.00000   180.00000     0.13958
    28.50000    90.00000   180.00000     0.22517    90.00000   180.00000     0.13945
    28.60000    90.00000   180.00000     0.22501    90.00000   180.00000     0.13933
    28.70000    90.00000   180.00000     0.22485    90.00000   180.00000     0.13920
    28.80000    90.00000   180.00000     0.22469    90.00000   180.00000     0.13907
    28.90000    90.00000   180.00000     0.22452    90.00000   180.00000     0.13894
    29.00000    90.00000   180.00000     0.22436    90.00000   180.00000     0.13881
    29.10000    90.00000   180.00000     0.22420    90.00000   180.00000     0.13868
    29.20000    90.00000   180.00000     0.22404    90.00000   180.00000     0.13855
    29.30000    90.00000   180.00000     0.22388    90.00000   180.00000     0.13842
    29.40000    90.00000   180.00000     0.22372    90.00000   180.00000     0.13829
    29.50000    90.00000   180.00000     0.22356    90.00000   180.00000     0.13816
    29.60000    90.00000   180.00000     0.22340    90.00000   180.00000     0.13803
    29.70000    90.00000   180.00000     0.22323    90.00000   180.00000     0.13790
    29.80000    90.00000   180.00000     0.22307    90.00000   180.00000     0.13777
    29.90000    90.00000   180.00000     0.22291    90.00000   180.00000     0.13765
    30.00000    90.00000   180.00000     0.22275    90.00000   180.00000     0.13752
    30.10000    90.00000   180.00000     0.22259    90.00000   180.00000     0.13739
    30.20000    90.00000   180.00000     0.22243    90.00000   180.00000     0.13726
    30.30000    90.00000   180.00000     0.22227    90.00000   180.00000     0.13713
    30.40000    90.00000   180.00000     0.22211    90.00000   180.00000     0.13700
    30.50000    90.00000   180.00000     0.22195    90.00000   180.00000     0.13687
    30.60000    90.00000   180.00000     0.22178    90.00000   180.00000     0.13674
    30.70000    90.00000   180.00000     0.22162    90.00000   180.00000     0.13661
    30.80000    90.00000   180.00000     0.22146    90.00000   180.00000     0.13648
    30.90000    90.00000   180.00000     0.22130    90.00000   180.00000     0.13635
    31.00000    90.00000   180.00000     0.22114    90.00000   180.00000     0.13623
    31.10000    90.00000   180.00000     0.22098    90.00000   180.00000     0.13610
    31.20000    90.00000   180.00000     0.22082    90.00000   180.00000     0.13597
    31.30000    90.00000   180.00000     0.22066    90.00000   180.00000     0.13584
    31.40000    90.00000   180.00000     0.22050    90.00000   180.00000     0.13571
    31.50000    90.00000   180.00000     0.22034    90.00000   180.00000     0.13558
    31.60000    90.00000   180.00000     0.22017    90.00000   180.00000     0.13545
    31.70000    90.00000   180.00000     0.22001    90.00000   180.00000     0.13532
    31.80000    90.00000   180.00000     0.21985    90.00000   180.00000     0.13519
    31.90000    90.00000   180.00000     0.21969    90.00000   180.00000     0.13506
    32.00000    90.00000   180.00000     0.21953    90.00000   180.00000     0.13494
    32.10000    90.00000   180.00000     0.21937    90.00000   180.00000     0.13481
    32.20000    90.00000   180.00000     0.21921    90.00000   180.00000     0.13468
    32.30000    90.00000   180.00000     0.21905    90.00000   180.00000     0.13455
    32.40000    90.00000   180.00000     0.21889    90.00000   180.00000     0.13442
    32.50000    90.00000   180.00000     0.21872    90.00000   180.00000     0.13429
    32.60000    90.00000   180.00000     0.21856    90.00000   180.00000     0.13416
    32.70000    90.00000   180.00000     0.21840    90.00000   180.00000     0.13403
    32.80000    90.00000   180.00000     0.21824    90.00000   180.00000     0.13390
    32.90000    90.00000   180.00000     0.21808    90.00000   180.00000     0.13378
    33.00000    90.00000   180.00000     0.21792    90.00000   180.00000     0.13365
    33.10000    90.00000   180.00000     0.21776    90.00000   180.00000     0.13352
    33.20000    90.00000   180.00000     0.21760    90.00000   180.00000     0.13339
    33.30000    90.00000   180.00000     0.21744    90.00000   180.00000     0.13326
    33.40000    90.00000   180.00000     0.21728    90.00000   180.00000     0.13313
    33.50000    90.00000   180.00000     0.21712    90.00000   180.00000     0.13300
    33.60000    90.00000   180.00000     0.21695    90.00000   180.00000     0.13287
    33.70000    90.00000   180.00000     0.21679    90.00000   180.00000     0.13274
    33.80000    90.00000   180.00000     0.21663    90.00000   180.00000     0.13262
    33.90000    90.00000   180.00000     0.21647    90.00000   180.00000     0.13249
    34.00000    90.00000   180.00000     0.21631    90.00000   180.00000     0.13236
    34.10000    90.00000   180.00000     0.21615    90.00000   180.00000     0.13223
    34.20000    90.00000   180.00000     0.21599    90.00000   180.00000     0.13210
    34.30000    90.00000   180.00000     0.21583    90.00000   180.00000     0.13197
    34.40000    90.00000   180.00000     0.21567    90.00000   180.00000     0.13184
    34.50000    90.00000   180.00000     0.21551    90.00000   180.00000     0.13172
    34.60000    90.00000   180.00000     0.21535    90.00000   180.00000     0.13159
    34.70000    90.00000   180.00000     0.21519    90.00000   180.00000     0.13146
    34.80000    90.00000   180.00000     0.21502    90.00000   180.00000     0.13133
    34.90000    90.00000   180.00000     0.21486    90.00000   180.00000     0.13120
    35.00000    90.00000   180.00000     0.21470    90.00000   180.00000     0.13107
    35.10000    90.00000   180.00000     0.21454    90.00000   180.00000     0.13094
    35.20000    90.00000   180.00000     0.21438    90.00000   180.00000     0.13081
    35.30000    90.00000   180.00000     0.21422    90.00000   180.00000     0.13069
    35.40000    90.00000   180.00000     0.21406    90.00000   180.00000     0.13056
    35.50000    90.00000   180.00000     0.21390    90.00000   180.00000     0.13043
    35.60000    90.00000   180.00000     0.21374    90.00000   180.00000     0.13030
    35.70000    90.00000   180.00000     0.21358    90.00000   180.00000     0.13017
    35.80000    90.00000   180.00000     0.21342    90.00000   180.00000     0.13004
    35.90000    90.00000   180.00000     0.21326    90.00000   180.00000     0.12991
    36.00000    90.00000   180.00000     0.21310    90.00000   180.00000     0.12979
    36.10000    90.00000   180.00000     0.21294    90.00000   180.00000     0.12966
    36.20000    90.00000   180.00000     0.21277    90.00000   180.00000     0.12953
    36.30000    90.00000   180.00000     0.21261    90.00000   180.00000     0.12940
    36.40000    90.00000   180.00000     0.21245    90.00000   180.00000     0.12927
    36.50000    90.00000   180.00000     0.21229    90.00000   180.00000     0.12914
    36.60000    90.00000   180.00000     0.21213    90.00000   180.00000     0.12902
    36.70000    90.00000   180.00000     0.21197    90.00000   180.00000     0.12889
    36.80000    90.00000   180.00000     0.21181    90.00000   180.00000     0.12876
    36.90000    90.00000   180.00000     0.21165    90.00000   180.00000     0.12863
    37.00000    90.00000   180.00000     0.21149    90.00000   180.00000     0.12850
    37.10000    90.00000   180.00000     0.21133    90.00000   180.00000     0.12837
    37.20000    90.00000   180.00000     0.21117    90.00000   180.00000     0.12824
    37.30000    90.00000   180.00000     0.21101    90.00000   180.00000     0.12812
    37.40000    90.00000   180.00000     0.21085    90.00000   180.00000     0.12799
    37.50000    90.00000   180.00000     0.21069    90.00000   180.00000     0.12786
    37.60000    90.00000   180.00000     0.21053    90.00000   180.00000     0.12773
    37.70000    90.00000   180.00000     0.21037    90.00000   180.00000     0.12760
    37.80000    90.00000   180.00000     0.21021    90.00000   180.00000     0.12747
    37.90000    90.00000   180.00000     0.21005    90.00000   180.00000     0.12735
    38.00000    90.00000   180.00000     0.20989    90.00000   180.00000     0.12722
    38.10000    90.00000   180.00000     0.20973    90.00000   180.00000     0.12709
    38.20000    90.00000   180.00000     0.20957    90.00000   180.00000     0.12696
    38.30000    90.00000   180.00000     0.20941    90.00000   180.00000     0.12683
    38.40000    90.00000   180.00000     0.20925    90.00000   180.00000     0.12670
    38.50000    90.00000   180.00000     0.20909    90.00000   180.00000     0.12658
    38.60000    90.00000   180.00000     0.20893    90.00000   180.00000     0.12645
    38.70000    90.00000   180.00000     0.20877    90.00000   180.00000     0.12632
    38.80000    90.00000   180.00000     0.20861    90.00000   180.00000     0.12619
    38.90000    90.00000   180.00000     0.20845    90.00000   180.00000     0.12606
    39.00000    90.00000   180.00000     0.20829    90.00000   180.00000     0.12594
    39.10000    90.00000   180.00000     0.20813    90.00000   180.00000     0.12581
    39.20000    90.00000   180.00000     0.20797    90.00000   180.00000     0.12568
    39.30000    90.00000   180.00000     0.20781    90.00000   180.00000     0.12555
    39.40000    90.00000   180.00000     0.20765    90.00000   180.00000     0.12542
    39.50000    90.00000   180.00000     0.20749    90.00000   180.00000     0.12529
    39.60000    90.00000   180.00000     0.20733    90.00000   180.00000     0.12517
    39.70000    90.00000   180.00000     0.20717    90.00000   180.00000     0.12504
    39.80000    90.00000   180.00000     0.20701    90.00000   180.00000     0.12491
    39.90000    90.00000   180.00000     0.20685    90.00000   180.00000     0.12478
    40.00000    90.00000   180.00000     0.20669    90.00000   180.00000     0.12465
