 # applied field (T), theta (degree), phi (degree), abs for RE 1-2
     0.00000    90.00000   224.57206     2.98814    90.00000   224.57206     2.98814
     0.10000    90.00000   180.00000     2.98636    90.00000   180.00000     2.98636
     0.20000    90.00000   180.00000     2.98635    90.00000   180.00000     2.98635
     0.30000    90.00000   180.00000     2.98634    90.00000   180.00000     2.98634
     0.40000    90.00000   180.00000     2.98632    90.00000   180.00000     2.98632
     0.50000    90.00000   180.00000     2.98631    90.00000   180.00000     2.98631
     0.60000    90.00000   180.00000     2.98630    90.00000   180.00000     2.98630
     0.70000    90.00000   180.00000     2.98629    90.00000   180.00000     2.98629
     0.80000    90.00000   180.00000     2.98628    90.00000   180.00000     2.98628
     0.90000    90.00000   180.00000     2.98627    90.00000   180.00000     2.98627
     1.00000    90.00000   180.00000     2.98626    90.00000   180.00000     2.98626
     1.10000    90.00000   180.00000     2.98625    90.00000   180.00000     2.98625
     1.20000    90.00000   180.00000     2.98624    90.00000   180.00000     2.98624
     1.30000    90.00000   180.00000     2.98623    90.00000   180.00000     2.98623
     1.40000    90.00000   180.00000     2.98622    90.00000   180.00000     2.98622
     1.50000    90.00000   180.00000     2.98621    90.00000   180.00000     2.98621
     1.60000    90.00000   180.00000     2.98620    90.00000   180.00000     2.98620
     1.70000    90.00000   180.00000     2.98619    90.00000   180.00000     2.98619
     1.80000    90.00000   180.00000     2.98618    90.00000   180.00000     2.98618
     1.90000    90.00000   180.00000     2.98617    90.00000   180.00000     2.98617
     2.00000    90.00000   180.00000     2.98615    90.00000   180.00000     2.98615
     2.10000    90.00000   180.00000     2.98614    90.00000   180.00000     2.98614
     2.20000    90.00000   180.00000     2.98613    90.00000   180.00000     2.98613
     2.30000    90.00000   180.00000     2.98612    90.00000   180.00000     2.98612
     2.40000    90.00000   180.00000     2.98611    90.00000   180.00000     2.98611
     2.50000    90.00000   180.00000     2.98610    90.00000   180.00000     2.98610
     2.60000    90.00000   180.00000     2.98609    90.00000   180.00000     2.98609
     2.70000    90.00000   180.00000     2.98608    90.00000   180.00000     2.98608
     2.80000    90.00000   180.00000     2.98607    90.00000   180.00000     2.98607
     2.90000    90.00000   180.00000     2.98606    90.00000   180.00000     2.98606
     3.00000    90.00000   180.00000     2.98604    90.00000   180.00000     2.98604
     3.10000    90.00000   180.00000     2.98603    90.00000   180.00000     2.98603
     3.20000    90.00000   180.00000     2.98602    90.00000   180.00000     2.98602
     3.30000    90.00000   180.00000     2.98601    90.00000   180.00000     2.98601
     3.40000    90.00000   180.00000     2.98600    90.00000   180.00000     2.98600
     3.50000    90.00000   180.00000     2.98599    90.00000   180.00000     2.98599
     3.60000    90.00000   180.00000     2.98598    90.00000   180.00000     2.98598
     3.70000    90.00000   180.00000     2.98597    90.00000   180.00000     2.98597
     3.80000    90.00000   180.00000     2.98595    90.00000   180.00000     2.98595
     3.90000    90.00000   180.00000     2.98594    90.00000   180.00000     2.98594
     4.00000    90.00000   180.00000     2.98593    90.00000   180.00000     2.98593
     4.10000    90.00000   180.00000     2.98592    90.00000   180.00000     2.98592
     4.20000    90.00000   180.00000     2.98591    90.00000   180.00000     2.98591
     4.30000    90.00000   180.00000     2.98590    90.00000   180.00000     2.98590
     4.40000    90.00000   180.00000     2.98589    90.00000   180.00000     2.98589
     4.50000    90.00000   180.00000     2.98588    90.00000   180.00000     2.98588
     4.60000    90.00000   180.00000     2.98586    90.00000   180.00000     2.98586
     4.70000    90.00000   180.00000     2.98585    90.00000   180.00000     2.98585
     4.80000    90.00000   180.00000     2.98584    90.00000   180.00000     2.98584
     4.90000    90.00000   180.00000     2.98583    90.00000   180.00000     2.98583
     5.00000    90.00000   180.00000     2.98582    90.00000   180.00000     2.98582
     5.10000    90.00000   180.00000     2.98581    90.00000   180.00000     2.98581
     5.20000    90.00000   180.00000     2.98579    90.00000   180.00000     2.98579
     5.30000    90.00000   180.00000     2.98578    90.00000   180.00000     2.98578
     5.40000    90.00000   180.00000     2.98577    90.00000   180.00000     2.98577
     5.50000    90.00000   180.00000     2.98576    90.00000   180.00000     2.98576
     5.60000    90.00000   180.00000     2.98575    90.00000   180.00000     2.98575
     5.70000    90.00000   180.00000     2.98574    90.00000   180.00000     2.98574
     5.80000    90.00000   180.00000     2.98572    90.00000   180.00000     2.98572
     5.90000    90.00000   180.00000     2.98571    90.00000   180.00000     2.98571
     6.00000    90.00000   180.00000     2.98570    90.00000   180.00000     2.98570
     6.10000    90.00000   180.00000     2.98569    90.00000   180.00000     2.98569
     6.20000    90.00000   180.00000     2.98568    90.00000   180.00000     2.98568
     6.30000    90.00000   180.00000     2.98566    90.00000   180.00000     2.98566
     6.40000    90.00000   180.00000     2.98565    90.00000   180.00000     2.98565
     6.50000    90.00000   180.00000     2.98564    90.00000   180.00000     2.98564
     6.60000    90.00000   180.00000     2.98563    90.00000   180.00000     2.98563
     6.70000    90.00000   180.00000     2.98562    90.00000   180.00000     2.98562
     6.80000    90.00000   180.00000     2.98561    90.00000   180.00000     2.98561
     6.90000    90.00000   180.00000     2.98559    90.00000   180.00000     2.98559
     7.00000    90.00000   180.00000     2.98558    90.00000   180.00000     2.98558
     7.10000    90.00000   180.00000     2.98557    90.00000   180.00000     2.98557
     7.20000    90.00000   180.00000     2.98556    90.00000   180.00000     2.98556
     7.30000    90.00000   180.00000     2.98554    90.00000   180.00000     2.98554
     7.40000    90.00000   180.00000     2.98553    90.00000   180.00000     2.98553
     7.50000    90.00000   180.00000     2.98552    90.00000   180.00000     2.98552
     7.60000    90.00000   180.00000     2.98551    90.00000   180.00000     2.98551
     7.70000    90.00000   180.00000     2.98550    90.00000   180.00000     2.98550
     7.80000    90.00000   180.00000     2.98548    90.00000   180.00000     2.98548
     7.90000    90.00000   180.00000     2.98547    90.00000   180.00000     2.98547
     8.00000    90.00000   180.00000     2.98546    90.00000   180.00000     2.98546
     8.10000    90.00000   180.00000     2.98545    90.00000   180.00000     2.98545
     8.20000    90.00000   180.00000     2.98543    90.00000   180.00000     2.98543
     8.30000    90.00000   180.00000     2.98542    90.00000   180.00000     2.98542
     8.40000    90.00000   180.00000     2.98541    90.00000   180.00000     2.98541
     8.50000    90.00000   180.00000     2.98540    90.00000   180.00000     2.98540
     8.60000    90.00000   180.00000     2.98538    90.00000   180.00000     2.98538
     8.70000    90.00000   180.00000     2.98537    90.00000   180.00000     2.98537
     8.80000    90.00000   180.00000     2.98536    90.00000   180.00000     2.98536
     8.90000    90.00000   180.00000     2.98535    90.00000   180.00000     2.98535
     9.00000    90.00000   180.00000     2.98533    90.00000   180.00000     2.98533
     9.10000    90.00000   180.00000     2.98532    90.00000   180.00000     2.98532
     9.20000    90.00000   180.00000     2.98531    90.00000   180.00000     2.98531
     9.30000    90.00000   180.00000     2.98530    90.00000   180.00000     2.98530
     9.40000    90.00000   180.00000     2.98528    90.00000   180.00000     2.98528
     9.50000    90.00000   180.00000     2.98527    90.00000   180.00000     2.98527
     9.60000    90.00000   180.00000     2.98526    90.00000   180.00000     2.98526
     9.70000    90.00000   180.00000     2.98525    90.00000   180.00000     2.98525
     9.80000    90.00000   180.00000     2.98523    90.00000   180.00000     2.98523
     9.90000    90.00000   180.00000     2.98522    90.00000   180.00000     2.98522
    10.00000    90.00000   180.00000     2.98521    90.00000   180.00000     2.98521
    10.10000    90.00000   180.00000     2.98519    90.00000   180.00000     2.98519
    10.20000    90.00000   180.00000     2.98518    90.00000   180.00000     2.98518
    10.30000    90.00000   180.00000     2.98517    90.00000   180.00000     2.98517
    10.40000    90.00000   180.00000     2.98516    90.00000   180.00000     2.98516
    10.50000    90.00000   180.00000     2.98514    90.00000   180.00000     2.98514
    10.60000    90.00000   180.00000     2.98513    90.00000   180.00000     2.98513
    10.70000    90.00000   180.00000     2.98512    90.00000   180.00000     2.98512
    10.80000    90.00000   180.00000     2.98510    90.00000   180.00000     2.98510
    10.90000    90.00000   180.00000     2.98509    90.00000   180.00000     2.98509
    11.00000    90.00000   180.00000     2.98508    90.00000   180.00000     2.98508
    11.10000    90.00000   180.00000     2.98506    90.00000   180.00000     2.98506
    11.20000    90.00000   180.00000     2.98505    90.00000   180.00000     2.98505
    11.30000    90.00000   180.00000     2.98504    90.00000   180.00000     2.98504
    11.40000    90.00000   180.00000     2.98503    90.00000   180.00000     2.98503
    11.50000    90.00000   180.00000     2.98501    90.00000   180.00000     2.98501
    11.60000    90.00000   180.00000     2.98500    90.00000   180.00000     2.98500
    11.70000    90.00000   180.00000     2.98499    90.00000   180.00000     2.98499
    11.80000    90.00000   180.00000     2.98497    90.00000   180.00000     2.98497
    11.90000    90.00000   180.00000     2.98496    90.00000   180.00000     2.98496
    12.00000    90.00000   180.00000     2.98495    90.00000   180.00000     2.98495
    12.10000    90.00000   180.00000     2.98493    90.00000   180.00000     2.98493
    12.20000    90.00000   180.00000     2.98492    90.00000   180.00000     2.98492
    12.30000    90.00000   180.00000     2.98491    90.00000   180.00000     2.98491
    12.40000    90.00000   180.00000     2.98489    90.00000   180.00000     2.98489
    12.50000    90.00000   180.00000     2.98488    90.00000   180.00000     2.98488
    12.60000    90.00000   180.00000     2.98487    90.00000   180.00000     2.98487
    12.70000    90.00000   180.00000     2.98485    90.00000   180.00000     2.98485
    12.80000    90.00000   180.00000     2.98484    90.00000   180.00000     2.98484
    12.90000    90.00000   180.00000     2.98483    90.00000   180.00000     2.98483
    13.00000    90.00000   180.00000     2.98481    90.00000   180.00000     2.98481
    13.10000    90.00000   180.00000     2.98480    90.00000   180.00000     2.98480
    13.20000    90.00000   180.00000     2.98478    90.00000   180.00000     2.98478
    13.30000    90.00000   180.00000     2.98477    90.00000   180.00000     2.98477
    13.40000    90.00000   180.00000     2.98476    90.00000   180.00000     2.98476
    13.50000    90.00000   180.00000     2.98474    90.00000   180.00000     2.98474
    13.60000    90.00000   180.00000     2.98473    90.00000   180.00000     2.98473
    13.70000    90.00000   180.00000     2.98472    90.00000   180.00000     2.98472
    13.80000    90.00000   180.00000     2.98470    90.00000   180.00000     2.98470
    13.90000    90.00000   180.00000     2.98469    90.00000   180.00000     2.98469
    14.00000    90.00000   180.00000     2.98467    90.00000   180.00000     2.98467
    14.10000    90.00000   180.00000     2.98466    90.00000   180.00000     2.98466
    14.20000    90.00000   180.00000     2.98465    90.00000   180.00000     2.98465
    14.30000    90.00000   180.00000     2.98463    90.00000   180.00000     2.98463
    14.40000    90.00000   180.00000     2.98462    90.00000   180.00000     2.98462
    14.50000    90.00000   180.00000     2.98461    90.00000   180.00000     2.98461
    14.60000    90.00000   180.00000     2.98459    90.00000   180.00000     2.98459
    14.70000    90.00000   180.00000     2.98458    90.00000   180.00000     2.98458
    14.80000    90.00000   180.00000     2.98456    90.00000   180.00000     2.98456
    14.90000    90.00000   180.00000     2.98455    90.00000   180.00000     2.98455
    15.00000    90.00000   180.00000     2.98454    90.00000   180.00000     2.98454
    15.10000    90.00000   180.00000     2.98452    90.00000   180.00000     2.98452
    15.20000    90.00000   180.00000     2.98451    90.00000   180.00000     2.98451
    15.30000    90.00000   180.00000     2.98449    90.00000   180.00000     2.98449
    15.40000    90.00000   180.00000     2.98448    90.00000   180.00000     2.98448
    15.50000    90.00000   180.00000     2.98446    90.00000   180.00000     2.98446
    15.60000    90.00000   180.00000     2.98445    90.00000   180.00000     2.98445
    15.70000    90.00000   180.00000     2.98444    90.00000   180.00000     2.98444
    15.80000    90.00000   180.00000     2.98442    90.00000   180.00000     2.98442
    15.90000    90.00000   180.00000     2.98441    90.00000   180.00000     2.98441
    16.00000    90.00000   180.00000     2.98439    90.00000   180.00000     2.98439
    16.10000    90.00000   180.00000     2.98438    90.00000   180.00000     2.98438
    16.20000    90.00000   180.00000     2.98436    90.00000   180.00000     2.98436
    16.30000    90.00000   180.00000     2.98435    90.00000   180.00000     2.98435
    16.40000    90.00000   180.00000     2.98434    90.00000   180.00000     2.98434
    16.50000    90.00000   180.00000     2.98432    90.00000   180.00000     2.98432
    16.60000    90.00000   180.00000     2.98431    90.00000   180.00000     2.98431
    16.70000    90.00000   180.00000     2.98429    90.00000   180.00000     2.98429
    16.80000    90.00000   180.00000     2.98428    90.00000   180.00000     2.98428
    16.90000    90.00000   180.00000     2.98426    90.00000   180.00000     2.98426
    17.00000    90.00000   180.00000     2.98425    90.00000   180.00000     2.98425
    17.10000    90.00000   180.00000     2.98423    90.00000   180.00000     2.98423
    17.20000    90.00000   180.00000     2.98422    90.00000   180.00000     2.98422
    17.30000    90.00000   180.00000     2.98421    90.00000   180.00000     2.98421
    17.40000    90.00000   180.00000     2.98419    90.00000   180.00000     2.98419
    17.50000    90.00000   180.00000     2.98418    90.00000   180.00000     2.98418
    17.60000    90.00000   180.00000     2.98416    90.00000   180.00000     2.98416
    17.70000    90.00000   180.00000     2.98415    90.00000   180.00000     2.98415
    17.80000    90.00000   180.00000     2.98413    90.00000   180.00000     2.98413
    17.90000    90.00000   180.00000     2.98412    90.00000   180.00000     2.98412
    18.00000    90.00000   180.00000     2.98410    90.00000   180.00000     2.98410
    18.10000    90.00000   180.00000     2.98409    90.00000   180.00000     2.98409
    18.20000    90.00000   180.00000     2.98407    90.00000   180.00000     2.98407
    18.30000    90.00000   180.00000     2.98406    90.00000   180.00000     2.98406
    18.40000    90.00000   180.00000     2.98404    90.00000   180.00000     2.98404
    18.50000    90.00000   180.00000     2.98403    90.00000   180.00000     2.98403
    18.60000    90.00000   180.00000     2.98401    90.00000   180.00000     2.98401
    18.70000    90.00000   180.00000     2.98400    90.00000   180.00000     2.98400
    18.80000    90.00000   180.00000     2.98398    90.00000   180.00000     2.98398
    18.90000    90.00000   180.00000     2.98397    90.00000   180.00000     2.98397
    19.00000    90.00000   180.00000     2.98395    90.00000   180.00000     2.98395
    19.10000    90.00000   180.00000     2.98394    90.00000   180.00000     2.98394
    19.20000    90.00000   180.00000     2.98392    90.00000   180.00000     2.98392
    19.30000    90.00000   180.00000     2.98391    90.00000   180.00000     2.98391
    19.40000    90.00000   180.00000     2.98389    90.00000   180.00000     2.98389
    19.50000    90.00000   180.00000     2.98388    90.00000   180.00000     2.98388
    19.60000    90.00000   180.00000     2.98386    90.00000   180.00000     2.98386
    19.70000    90.00000   180.00000     2.98385    90.00000   180.00000     2.98385
    19.80000    90.00000   180.00000     2.98383    90.00000   180.00000     2.98383
    19.90000    90.00000   180.00000     2.98382    90.00000   180.00000     2.98382
    20.00000    90.00000   180.00000     2.98380    90.00000   180.00000     2.98380
    20.10000    90.00000   180.00000     2.98379    90.00000   180.00000     2.98379
    20.20000    90.00000   180.00000     2.98377    90.00000   180.00000     2.98377
    20.30000    90.00000   180.00000     2.98376    90.00000   180.00000     2.98376
    20.40000    90.00000   180.00000     2.98374    90.00000   180.00000     2.98374
    20.50000    90.00000   180.00000     2.98372    90.00000   180.00000     2.98372
    20.60000    90.00000   180.00000     2.98371    90.00000   180.00000     2.98371
    20.70000    90.00000   180.00000     2.98369    90.00000   180.00000     2.98369
    20.80000    90.00000   180.00000     2.98368    90.00000   180.00000     2.98368
    20.90000    90.00000   180.00000     2.98366    90.00000   180.00000     2.98366
    21.00000    90.00000   180.00000     2.98365    90.00000   180.00000     2.98365
    21.10000    90.00000   180.00000     2.98363    90.00000   180.00000     2.98363
    21.20000    90.00000   180.00000     2.98362    90.00000   180.00000     2.98362
    21.30000    90.00000   180.00000     2.98360    90.00000   180.00000     2.98360
    21.40000    90.00000   180.00000     2.98358    90.00000   180.00000     2.98358
    21.50000    90.00000   180.00000     2.98357    90.00000   180.00000     2.98357
    21.60000    90.00000   180.00000     2.98355    90.00000   180.00000     2.98355
    21.70000    90.00000   180.00000     2.98354    90.00000   180.00000     2.98354
    21.80000    90.00000   180.00000     2.98352    90.00000   180.00000     2.98352
    21.90000    90.00000   180.00000     2.98351    90.00000   180.00000     2.98351
    22.00000    90.00000   180.00000     2.98349    90.00000   180.00000     2.98349
    22.10000    90.00000   180.00000     2.98347    90.00000   180.00000     2.98347
    22.20000    90.00000   180.00000     2.98346    90.00000   180.00000     2.98346
    22.30000    90.00000   180.00000     2.98344    90.00000   180.00000     2.98344
    22.40000    90.00000   180.00000     2.98343    90.00000   180.00000     2.98343
    22.50000    90.00000   180.00000     2.98341    90.00000   180.00000     2.98341
    22.60000    90.00000   180.00000     2.98339    90.00000   180.00000     2.98339
    22.70000    90.00000   180.00000     2.98338    90.00000   180.00000     2.98338
    22.80000    90.00000   180.00000     2.98336    90.00000   180.00000     2.98336
    22.90000    90.00000   180.00000     2.98335    90.00000   180.00000     2.98335
    23.00000    90.00000   180.00000     2.98333    90.00000   180.00000     2.98333
    23.10000    90.00000   180.00000     2.98331    90.00000   180.00000     2.98331
    23.20000    90.00000   180.00000     2.98330    90.00000   180.00000     2.98330
    23.30000    90.00000   180.00000     2.98328    90.00000   180.00000     2.98328
    23.40000    90.00000   180.00000     2.98327    90.00000   180.00000     2.98327
    23.50000    90.00000   180.00000     2.98325    90.00000   180.00000     2.98325
    23.60000    90.00000   180.00000     2.98323    90.00000   180.00000     2.98323
    23.70000    90.00000   180.00000     2.98322    90.00000   180.00000     2.98322
    23.80000    90.00000   180.00000     2.98320    90.00000   180.00000     2.98320
    23.90000    90.00000   180.00000     2.98319    90.00000   180.00000     2.98319
    24.00000    90.00000   180.00000     2.98317    90.00000   180.00000     2.98317
    24.10000    90.00000   180.00000     2.98315    90.00000   180.00000     2.98315
    24.20000    90.00000   180.00000     2.98314    90.00000   180.00000     2.98314
    24.30000    90.00000   180.00000     2.98312    90.00000   180.00000     2.98312
    24.40000    90.00000   180.00000     2.98310    90.00000   180.00000     2.98310
    24.50000    90.00000   180.00000     2.98309    90.00000   180.00000     2.98309
    24.60000    90.00000   180.00000     2.98307    90.00000   180.00000     2.98307
    24.70000    90.00000   180.00000     2.98305    90.00000   180.00000     2.98305
    24.80000    90.00000   180.00000     2.98304    90.00000   180.00000     2.98304
    24.90000    90.00000   180.00000     2.98302    90.00000   180.00000     2.98302
    25.00000    90.00000   180.00000     2.98300    90.00000   180.00000     2.98300
    25.10000    90.00000   180.00000     2.98299    90.00000   180.00000     2.98299
    25.20000    90.00000   180.00000     2.98297    90.00000   180.00000     2.98297
    25.30000    90.00000   180.00000     2.98295    90.00000   180.00000     2.98295
    25.40000    90.00000   180.00000     2.98294    90.00000   180.00000     2.98294
    25.50000    90.00000   180.00000     2.98292    90.00000   180.00000     2.98292
    25.60000    90.00000   180.00000     2.98290    90.00000   180.00000     2.98290
    25.70000    90.00000   180.00000     2.98289    90.00000   180.00000     2.98289
    25.80000    90.00000   180.00000     2.98287    90.00000   180.00000     2.98287
    25.90000    90.00000   180.00000     2.98285    90.00000   180.00000     2.98285
    26.00000    90.00000   180.00000     2.98284    90.00000   180.00000     2.98284
    26.10000    90.00000   180.00000     2.98282    90.00000   180.00000     2.98282
    26.20000    90.00000   180.00000     2.98280    90.00000   180.00000     2.98280
    26.30000    90.00000   180.00000     2.98279    90.00000   180.00000     2.98279
    26.40000    90.00000   180.00000     2.98277    90.00000   180.00000     2.98277
    26.50000    90.00000   180.00000     2.98275    90.00000   180.00000     2.98275
    26.60000    90.00000   180.00000     2.98274    90.00000   180.00000     2.98274
    26.70000    90.00000   180.00000     2.98272    90.00000   180.00000     2.98272
    26.80000    90.00000   180.00000     2.98270    90.00000   180.00000     2.98270
    26.90000    90.00000   180.00000     2.98269    90.00000   180.00000     2.98269
    27.00000    90.00000   180.00000     2.98267    90.00000   180.00000     2.98267
    27.10000    90.00000   180.00000     2.98265    90.00000   180.00000     2.98265
    27.20000    90.00000   180.00000     2.98263    90.00000   180.00000     2.98263
    27.30000    90.00000   180.00000     2.98262    90.00000   180.00000     2.98262
    27.40000    90.00000   180.00000     2.98260    90.00000   180.00000     2.98260
    27.50000    90.00000   180.00000     2.98258    90.00000   180.00000     2.98258
    27.60000    90.00000   180.00000     2.98257    90.00000   180.00000     2.98257
    27.70000    90.00000   180.00000     2.98255    90.00000   180.00000     2.98255
    27.80000    90.00000   180.00000     2.98253    90.00000   180.00000     2.98253
    27.90000    90.00000   180.00000     2.98251    90.00000   180.00000     2.98251
    28.00000    90.00000   180.00000     2.98250    90.00000   180.00000     2.98250
    28.10000    90.00000   180.00000     2.98248    90.00000   180.00000     2.98248
    28.20000    90.00000   180.00000     2.98246    90.00000   180.00000     2.98246
    28.30000    90.00000   180.00000     2.98244    90.00000   180.00000     2.98244
    28.40000    90.00000   180.00000     2.98243    90.00000   180.00000     2.98243
    28.50000    90.00000   180.00000     2.98241    90.00000   180.00000     2.98241
    28.60000    90.00000   180.00000     2.98239    90.00000   180.00000     2.98239
    28.70000    90.00000   180.00000     2.98238    90.00000   180.00000     2.98238
    28.80000    90.00000   180.00000     2.98236    90.00000   180.00000     2.98236
    28.90000    90.00000   180.00000     2.98234    90.00000   180.00000     2.98234
    29.00000    90.00000   180.00000     2.98232    90.00000   180.00000     2.98232
    29.10000    90.00000   180.00000     2.98231    90.00000   180.00000     2.98231
    29.20000    90.00000   180.00000     2.98229    90.00000   180.00000     2.98229
    29.30000    90.00000   180.00000     2.98227    90.00000   180.00000     2.98227
    29.40000    90.00000   180.00000     2.98225    90.00000   180.00000     2.98225
    29.50000    90.00000   180.00000     2.98223    90.00000   180.00000     2.98223
    29.60000    90.00000   180.00000     2.98222    90.00000   180.00000     2.98222
    29.70000    90.00000   180.00000     2.98220    90.00000   180.00000     2.98220
    29.80000    90.00000   180.00000     2.98218    90.00000   180.00000     2.98218
    29.90000    90.00000   180.00000     2.98216    90.00000   180.00000     2.98216
    30.00000    90.00000   180.00000     2.98215    90.00000   180.00000     2.98215
    30.10000    90.00000   180.00000     2.98213    90.00000   180.00000     2.98213
    30.20000    90.00000   180.00000     2.98211    90.00000   180.00000     2.98211
    30.30000    90.00000   180.00000     2.98209    90.00000   180.00000     2.98209
    30.40000    90.00000   180.00000     2.98207    90.00000   180.00000     2.98207
    30.50000    90.00000   180.00000     2.98206    90.00000   180.00000     2.98206
    30.60000    90.00000   180.00000     2.98204    90.00000   180.00000     2.98204
    30.70000    90.00000   180.00000     2.98202    90.00000   180.00000     2.98202
    30.80000    90.00000   180.00000     2.98200    90.00000   180.00000     2.98200
    30.90000    90.00000   180.00000     2.98198    90.00000   180.00000     2.98198
    31.00000    90.00000   180.00000     2.98197    90.00000   180.00000     2.98197
    31.10000    90.00000   180.00000     2.98195    90.00000   180.00000     2.98195
    31.20000    90.00000   180.00000     2.98193    90.00000   180.00000     2.98193
    31.30000    90.00000   180.00000     2.98191    90.00000   180.00000     2.98191
    31.40000    90.00000   180.00000     2.98189    90.00000   180.00000     2.98189
    31.50000    90.00000   180.00000     2.98188    90.00000   180.00000     2.98188
    31.60000    90.00000   180.00000     2.98186    90.00000   180.00000     2.98186
    31.70000    90.00000   180.00000     2.98184    90.00000   180.00000     2.98184
    31.80000    90.00000   180.00000     2.98182    90.00000   180.00000     2.98182
    31.90000    90.00000   180.00000     2.98180    90.00000   180.00000     2.98180
    32.00000    90.00000   180.00000     2.98178    90.00000   180.00000     2.98178
    32.10000    90.00000   180.00000     2.98177    90.00000   180.00000     2.98177
    32.20000    90.00000   180.00000     2.98175    90.00000   180.00000     2.98175
    32.30000    90.00000   180.00000     2.98173    90.00000   180.00000     2.98173
    32.40000    90.00000   180.00000     2.98171    90.00000   180.00000     2.98171
    32.50000    90.00000   180.00000     2.98169    90.00000   180.00000     2.98169
    32.60000    90.00000   180.00000     2.98167    90.00000   180.00000     2.98167
    32.70000    90.00000   180.00000     2.98166    90.00000   180.00000     2.98166
    32.80000    90.00000   180.00000     2.98164    90.00000   180.00000     2.98164
    32.90000    90.00000   180.00000     2.98162    90.00000   180.00000     2.98162
    33.00000    90.00000   180.00000     2.98160    90.00000   180.00000     2.98160
    33.10000    90.00000   180.00000     2.98158    90.00000   180.00000     2.98158
    33.20000    90.00000   180.00000     2.98156    90.00000   180.00000     2.98156
    33.30000    90.00000   180.00000     2.98154    90.00000   180.00000     2.98154
    33.40000    90.00000   180.00000     2.98153    90.00000   180.00000     2.98153
    33.50000    90.00000   180.00000     2.98151    90.00000   180.00000     2.98151
    33.60000    90.00000   180.00000     2.98149    90.00000   180.00000     2.98149
    33.70000    90.00000   180.00000     2.98147    90.00000   180.00000     2.98147
    33.80000    90.00000   180.00000     2.98145    90.00000   180.00000     2.98145
    33.90000    90.00000   180.00000     2.98143    90.00000   180.00000     2.98143
    34.00000    90.00000   180.00000     2.98141    90.00000   180.00000     2.98141
    34.10000    90.00000   180.00000     2.98139    90.00000   180.00000     2.98139
    34.20000    90.00000   180.00000     2.98138    90.00000   180.00000     2.98138
    34.30000    90.00000   180.00000     2.98136    90.00000   180.00000     2.98136
    34.40000    90.00000   180.00000     2.98134    90.00000   180.00000     2.98134
    34.50000    90.00000   180.00000     2.98132    90.00000   180.00000     2.98132
    34.60000    90.00000   180.00000     2.98130    90.00000   180.00000     2.98130
    34.70000    90.00000   180.00000     2.98128    90.00000   180.00000     2.98128
    34.80000    90.00000   180.00000     2.98126    90.00000   180.00000     2.98126
    34.90000    90.00000   180.00000     2.98124    90.00000   180.00000     2.98124
    35.00000    90.00000   180.00000     2.98122    90.00000   180.00000     2.98122
    35.10000    90.00000   180.00000     2.98121    90.00000   180.00000     2.98121
    35.20000    90.00000   180.00000     2.98119    90.00000   180.00000     2.98119
    35.30000    90.00000   180.00000     2.98117    90.00000   180.00000     2.98117
    35.40000    90.00000   180.00000     2.98115    90.00000   180.00000     2.98115
    35.50000    90.00000   180.00000     2.98113    90.00000   180.00000     2.98113
    35.60000    90.00000   180.00000     2.98111    90.00000   180.00000     2.98111
    35.70000    90.00000   180.00000     2.98109    90.00000   180.00000     2.98109
    35.80000    90.00000   180.00000     2.98107    90.00000   180.00000     2.98107
    35.90000    90.00000   180.00000     2.98105    90.00000   180.00000     2.98105
    36.00000    90.00000   180.00000     2.98103    90.00000   180.00000     2.98103
    36.10000    90.00000   180.00000     2.98101    90.00000   180.00000     2.98101
    36.20000    90.00000   180.00000     2.98099    90.00000   180.00000     2.98099
    36.30000    90.00000   180.00000     2.98097    90.00000   180.00000     2.98097
    36.40000    90.00000   180.00000     2.98096    90.00000   180.00000     2.98096
    36.50000    90.00000   180.00000     2.98094    90.00000   180.00000     2.98094
    36.60000    90.00000   180.00000     2.98092    90.00000   180.00000     2.98092
    36.70000    90.00000   180.00000     2.98090    90.00000   180.00000     2.98090
    36.80000    90.00000   180.00000     2.98088    90.00000   180.00000     2.98088
    36.90000    90.00000   180.00000     2.98086    90.00000   180.00000     2.98086
    37.00000    90.00000   180.00000     2.98084    90.00000   180.00000     2.98084
    37.10000    90.00000   180.00000     2.98082    90.00000   180.00000     2.98082
    37.20000    90.00000   180.00000     2.98080    90.00000   180.00000     2.98080
    37.30000    90.00000   180.00000     2.98078    90.00000   180.00000     2.98078
    37.40000    90.00000   180.00000     2.98076    90.00000   180.00000     2.98076
    37.50000    90.00000   180.00000     2.98074    90.00000   180.00000     2.98074
    37.60000    90.00000   180.00000     2.98072    90.00000   180.00000     2.98072
    37.70000    90.00000   180.00000     2.98070    90.00000   180.00000     2.98070
    37.80000    90.00000   180.00000     2.98068    90.00000   180.00000     2.98068
    37.90000    90.00000   180.00000     2.98066    90.00000   180.00000     2.98066
    38.00000    90.00000   180.00000     2.98064    90.00000   180.00000     2.98064
    38.10000    90.00000   180.00000     2.98062    90.00000   180.00000     2.98062
    38.20000    90.00000   180.00000     2.98060    90.00000   180.00000     2.98060
    38.30000    90.00000   180.00000     2.98058    90.00000   180.00000     2.98058
    38.40000    90.00000   180.00000     2.98056    90.00000   180.00000     2.98056
    38.50000    90.00000   180.00000     2.98054    90.00000   180.00000     2.98054
    38.60000    90.00000   180.00000     2.98052    90.00000   180.00000     2.98052
    38.70000    90.00000   180.00000     2.98050    90.00000   180.00000     2.98050
    38.80000    90.00000   180.00000     2.98048    90.00000   180.00000     2.98048
    38.90000    90.00000   180.00000     2.98046    90.00000   180.00000     2.98046
    39.00000    90.00000   180.00000     2.98044    90.00000   180.00000     2.98044
    39.10000    90.00000   180.00000     2.98042    90.00000   180.00000     2.98042
    39.20000    90.00000   180.00000     2.98040    90.00000   180.00000     2.98040
    39.30000    90.00000   180.00000     2.98038    90.00000   180.00000     2.98038
    39.40000    90.00000   180.00000     2.98036    90.00000   180.00000     2.98036
    39.50000    90.00000   180.00000     2.98034    90.00000   180.00000     2.98034
    39.60000    90.00000   180.00000     2.98032    90.00000   180.00000     2.98032
    39.70000    90.00000   180.00000     2.98030    90.00000   180.00000     2.98030
    39.80000    90.00000   180.00000     2.98028    90.00000   180.00000     2.98028
    39.90000    90.00000   180.00000     2.98026    90.00000   180.00000     2.98026
    40.00000    90.00000   180.00000     2.98024    90.00000   180.00000     2.98024
