 # applied field (T), theta (degree), phi (degree), abs
     0.00000     0.00000     0.00000    35.88287
     0.10000     0.40127     0.00000    35.88287
     0.20000     0.74522     0.00000    35.88287
     0.30000     1.14650     0.00000    35.88287
     0.40000     1.54777     0.00000    35.88287
     0.50000     1.94904     0.00000    35.88287
     0.60000     2.29299     0.00000    35.88287
     0.70000     2.69427     0.00000    35.88287
     0.80000     3.09554     0.00000    35.88287
     0.90000     3.49682     0.00000    35.88287
     1.00000     3.89809     0.00000    35.88287
     1.10000     4.24204     0.00000    35.88287
     1.20000     4.64331     0.00000    35.88287
     1.30000     5.04459     0.00000    35.88287
     1.40000     5.44586     0.00000    35.88287
     1.50000     5.78981     0.00000    35.88287
     1.60000     6.19108     0.00000    35.88287
     1.70000     6.59236     0.00000    35.88287
     1.80000     6.99363     0.00000    35.88287
     1.90000     7.33758     0.00000    35.88287
     2.00000     7.73885     0.00000    35.88287
     2.10000     8.14013     0.00000    35.88287
     2.20000     8.54140     0.00000    35.88287
     2.30000     8.94268     0.00000    35.88287
     2.40000     9.28662     0.00000    35.88287
     2.50000     9.68790     0.00000    35.88287
     2.60000    10.08917     0.00000    35.88287
     2.70000    10.49045     0.00000    35.88287
     2.80000    10.89172     0.00000    35.88287
     2.90000    11.29299     0.00000    35.88287
     3.00000    11.63694     0.00000    35.88287
     3.10000    12.03822     0.00000    35.88287
     3.20000    12.43949     0.00000    35.88287
     3.30000    12.84076     0.00000    35.88287
     3.40000    13.24204     0.00000    35.88287
     3.50000    13.64331     0.00000    35.88287
     3.60000    14.04459     0.00000    35.88287
     3.70000    14.44586     0.00000    35.88287
     3.80000    14.84713     0.00000    35.88287
     3.90000    15.24841     0.00000    35.88287
     4.00000    15.59236     0.00000    35.88287
     4.10000    15.99363     0.00000    35.88287
     4.20000    16.39490     0.00000    35.88287
     4.30000    16.79618     0.00000    35.88287
     4.40000    17.19745     0.00000    35.88287
     4.50000    17.59873     0.00000    35.88287
     4.60000    18.00000     0.00000    35.88287
     4.70000    18.40127     0.00000    35.88287
     4.80000    18.80255     0.00000    35.88287
     4.90000    19.20382     0.00000    35.88287
     5.00000    19.66242     0.00000    35.88287
     5.10000    20.06369     0.00000    35.88287
     5.20000    20.46497     0.00000    35.88287
     5.30000    20.86624     0.00000    35.88287
     5.40000    21.26752     0.00000    35.88287
     5.50000    21.66879     0.00000    35.88287
     5.60000    22.07006     0.00000    35.88287
     5.70000    22.47134     0.00000    35.88287
     5.80000    22.92994     0.00000    35.88287
     5.90000    23.33121     0.00000    35.88287
     6.00000    23.73248     0.00000    35.88287
     6.10000    24.13376     0.00000    35.88287
     6.20000    24.53503     0.00000    35.88287
     6.30000    24.99363     0.00000    35.88287
     6.40000    25.39490     0.00000    35.88287
     6.50000    25.79618     0.00000    35.88287
     6.60000    26.25478     0.00000    35.88287
     6.70000    26.65605     0.00000    35.88287
     6.80000    27.05732     0.00000    35.88287
     6.90000    27.51592     0.00000    35.88287
     7.00000    27.91720     0.00000    35.88287
     7.10000    28.37580     0.00000    35.88287
     7.20000    28.77707     0.00000    35.88287
     7.30000    29.23567     0.00000    35.88287
     7.40000    29.63694     0.00000    35.88287
     7.50000    30.09554     0.00000    35.88287
     7.60000    30.49682     0.00000    35.88287
     7.70000    30.95541     0.00000    35.88287
     7.80000    31.41401     0.00000    35.88287
     7.90000    31.81529     0.00000    35.88287
     8.00000    32.27389     0.00000    35.88287
     8.10000    32.73248     0.00000    35.88287
     8.20000    33.13376     0.00000    35.88287
     8.30000    33.59236     0.00000    35.88287
     8.40000    34.05096     0.00000    35.88287
     8.50000    34.50955     0.00000    35.88287
     8.60000    34.96815     0.00000    35.88287
     8.70000    35.42675     0.00000    35.88287
     8.80000    35.88535     0.00000    35.88287
     8.90000    36.34395     0.00000    35.88287
     9.00000    36.80255     0.00000    35.88287
     9.10000    37.26115     0.00000    35.88287
     9.20000    37.71975     0.00000    35.88287
     9.30000    38.17834     0.00000    35.88287
     9.40000    38.63694     0.00000    35.88287
     9.50000    39.15287     0.00000    35.88287
     9.60000    39.61146     0.00000    35.88287
     9.70000    40.07006     0.00000    35.88287
     9.80000    40.58599     0.00000    35.88287
     9.90000    41.04459     0.00000    35.88287
    10.00000    41.56051     0.00000    35.88287
    10.10000    42.01911     0.00000    35.88287
    10.20000    42.53503     0.00000    35.88287
    10.30000    42.99363     0.00000    35.88287
    10.40000    43.50955     0.00000    35.88287
    10.50000    44.02548     0.00000    35.88287
    10.60000    44.54140     0.00000    35.88287
    10.70000    45.05732     0.00000    35.88287
    10.80000    45.57325     0.00000    35.88287
    10.90000    46.08917     0.00000    35.88287
    11.00000    46.60510     0.00000    35.88287
    11.10000    47.12102     0.00000    35.88287
    11.20000    47.69427     0.00000    35.88287
    11.30000    48.21019     0.00000    35.88287
    11.40000    48.78344     0.00000    35.88287
    11.50000    49.29936     0.00000    35.88287
    11.60000    49.87261     0.00000    35.88287
    11.70000    50.44586     0.00000    35.88287
    11.80000    51.01911     0.00000    35.88287
    11.90000    51.59236     0.00000    35.88287
    12.00000    52.16561     0.00000    35.88287
    12.10000    52.73885     0.00000    35.88287
    12.20000    53.31210     0.00000    35.88287
    12.30000    53.94268     0.00000    35.88287
    12.40000    54.57325     0.00000    35.88287
    12.50000    55.14650     0.00000    35.88287
    12.60000    55.77707     0.00000    35.88287
    12.70000    56.40764     0.00000    35.88287
    12.80000    57.09554     0.00000    35.88287
    12.90000    57.72611     0.00000    35.88287
    13.00000    58.41401     0.00000    35.88287
    13.10000    59.10191     0.00000    35.88287
    13.20000    59.78981     0.00000    35.88287
    13.30000    60.47771     0.00000    35.88287
    13.40000    61.22293     0.00000    35.88287
    13.50000    61.96815     0.00000    35.88287
    13.60000    62.71338     0.00000    35.88287
    13.70000    63.45860     0.00000    35.88287
    13.80000    64.26115     0.00000    35.88287
    13.90000    65.06369     0.00000    35.88287
    14.00000    65.92357     0.00000    35.88287
    14.10000    66.78344     0.00000    35.88287
    14.20000    67.70064     0.00000    35.88287
    14.30000    68.61783     0.00000    35.88287
    14.40000    69.59236     0.00000    35.88287
    14.50000    70.62420     0.00000    35.88287
    14.60000    71.65605     0.00000    35.88287
    14.70000    72.80255     0.00000    35.88287
    14.80000    74.00637     0.00000    35.88287
    14.90000    75.32484     0.00000    35.88287
    15.00000    76.75796     0.00000    35.88287
    15.10000    78.36306     0.00000    35.88287
    15.20000    80.19745     0.00000    35.88287
    15.30000    82.43312     0.00000    35.88287
    15.40000    85.75796     0.00000    35.88287
    15.50000    90.00000     0.00000    35.88287
    15.60000    90.00000     0.00000    35.88287
    15.70000    90.00000     0.00000    35.88287
    15.80000    90.00000     0.00000    35.88287
    15.90000    90.00000     0.00000    35.88287
    16.00000    90.00000     0.00000    35.88287
    16.10000    90.00000     0.00000    35.88287
    16.20000    90.00000     0.00000    35.88287
    16.30000    90.00000     0.00000    35.88287
    16.40000    90.00000     0.00000    35.88287
    16.50000    90.00000     0.00000    35.88287
    16.60000    90.00000     0.00000    35.88287
    16.70000    90.00000     0.00000    35.88287
    16.80000    90.00000     0.00000    35.88287
    16.90000    90.00000     0.00000    35.88287
    17.00000    90.00000     0.00000    35.88287
    17.10000    90.00000     0.00000    35.88287
    17.20000    90.00000     0.00000    35.88287
    17.30000    90.00000     0.00000    35.88287
    17.40000    90.00000     0.00000    35.88287
    17.50000    90.00000     0.00000    35.88287
    17.60000    90.00000     0.00000    35.88287
    17.70000    90.00000     0.00000    35.88287
    17.80000    90.00000     0.00000    35.88287
    17.90000    90.00000     0.00000    35.88287
    18.00000    90.00000     0.00000    35.88287
    18.10000    90.00000     0.00000    35.88287
    18.20000    90.00000     0.00000    35.88287
    18.30000    90.00000     0.00000    35.88287
    18.40000    90.00000     0.00000    35.88287
    18.50000    90.00000     0.00000    35.88287
    18.60000    90.00000     0.00000    35.88287
    18.70000    90.00000     0.00000    35.88287
    18.80000    90.00000     0.00000    35.88287
    18.90000    90.00000     0.00000    35.88287
    19.00000    90.00000     0.00000    35.88287
    19.10000    90.00000     0.00000    35.88287
    19.20000    90.00000     0.00000    35.88287
    19.30000    90.00000     0.00000    35.88287
    19.40000    90.00000     0.00000    35.88287
    19.50000    90.00000     0.00000    35.88287
    19.60000    90.00000     0.00000    35.88287
    19.70000    90.00000     0.00000    35.88287
    19.80000    90.00000     0.00000    35.88287
    19.90000    90.00000     0.00000    35.88287
    20.00000    90.00000     0.00000    35.88287
    20.10000    90.00000     0.00000    35.88287
    20.20000    90.00000     0.00000    35.88287
    20.30000    90.00000     0.00000    35.88287
    20.40000    90.00000     0.00000    35.88287
    20.50000    90.00000     0.00000    35.88287
    20.60000    90.00000     0.00000    35.88287
    20.70000    90.00000     0.00000    35.88287
    20.80000    90.00000     0.00000    35.88287
    20.90000    90.00000     0.00000    35.88287
    21.00000    90.00000     0.00000    35.88287
    21.10000    90.00000     0.00000    35.88287
    21.20000    90.00000     0.00000    35.88287
    21.30000    90.00000     0.00000    35.88287
    21.40000    90.00000     0.00000    35.88287
    21.50000    90.00000     0.00000    35.88287
    21.60000    90.00000     0.00000    35.88287
    21.70000    90.00000     0.00000    35.88287
    21.80000    90.00000     0.00000    35.88287
    21.90000    90.00000     0.00000    35.88287
    22.00000    90.00000     0.00000    35.88287
    22.10000    90.00000     0.00000    35.88287
    22.20000    90.00000     0.00000    35.88287
    22.30000    90.00000     0.00000    35.88287
    22.40000    90.00000     0.00000    35.88287
    22.50000    90.00000     0.00000    35.88287
    22.60000    90.00000     0.00000    35.88287
    22.70000    90.00000     0.00000    35.88287
    22.80000    90.00000     0.00000    35.88287
    22.90000    90.00000     0.00000    35.88287
    23.00000    90.00000     0.00000    35.88287
    23.10000    90.00000     0.00000    35.88287
    23.20000    90.00000     0.00000    35.88287
    23.30000    90.00000     0.00000    35.88287
    23.40000    90.00000     0.00000    35.88287
    23.50000    90.00000     0.00000    35.88287
    23.60000    90.00000     0.00000    35.88287
    23.70000    90.00000     0.00000    35.88287
    23.80000    90.00000     0.00000    35.88287
    23.90000    90.00000     0.00000    35.88287
    24.00000    90.00000     0.00000    35.88287
    24.10000    90.00000     0.00000    35.88287
    24.20000    90.00000     0.00000    35.88287
    24.30000    90.00000     0.00000    35.88287
    24.40000    90.00000     0.00000    35.88287
    24.50000    90.00000     0.00000    35.88287
    24.60000    90.00000     0.00000    35.88287
    24.70000    90.00000     0.00000    35.88287
    24.80000    90.00000     0.00000    35.88287
    24.90000    90.00000     0.00000    35.88287
    25.00000    90.00000     0.00000    35.88287
    25.10000    90.00000     0.00000    35.88287
    25.20000    90.00000     0.00000    35.88287
    25.30000    90.00000     0.00000    35.88287
    25.40000    90.00000     0.00000    35.88287
    25.50000    90.00000     0.00000    35.88287
    25.60000    90.00000     0.00000    35.88287
    25.70000    90.00000     0.00000    35.88287
    25.80000    90.00000     0.00000    35.88287
    25.90000    90.00000     0.00000    35.88287
    26.00000    90.00000     0.00000    35.88287
    26.10000    90.00000     0.00000    35.88287
    26.20000    90.00000     0.00000    35.88287
    26.30000    90.00000     0.00000    35.88287
    26.40000    90.00000     0.00000    35.88287
    26.50000    90.00000     0.00000    35.88287
    26.60000    90.00000     0.00000    35.88287
    26.70000    90.00000     0.00000    35.88287
    26.80000    90.00000     0.00000    35.88287
    26.90000    90.00000     0.00000    35.88287
    27.00000    90.00000     0.00000    35.88287
    27.10000    90.00000     0.00000    35.88287
    27.20000    90.00000     0.00000    35.88287
    27.30000    90.00000     0.00000    35.88287
    27.40000    90.00000     0.00000    35.88287
    27.50000    90.00000     0.00000    35.88287
    27.60000    90.00000     0.00000    35.88287
    27.70000    90.00000     0.00000    35.88287
    27.80000    90.00000     0.00000    35.88287
    27.90000    90.00000     0.00000    35.88287
    28.00000    90.00000     0.00000    35.88287
    28.10000    90.00000     0.00000    35.88287
    28.20000    90.00000     0.00000    35.88287
    28.30000    90.00000     0.00000    35.88287
    28.40000    90.00000     0.00000    35.88287
    28.50000    90.00000     0.00000    35.88287
    28.60000    90.00000     0.00000    35.88287
    28.70000    90.00000     0.00000    35.88287
    28.80000    90.00000     0.00000    35.88287
    28.90000    90.00000     0.00000    35.88287
    29.00000    90.00000     0.00000    35.88287
    29.10000    90.00000     0.00000    35.88287
    29.20000    90.00000     0.00000    35.88287
    29.30000    90.00000     0.00000    35.88287
    29.40000    90.00000     0.00000    35.88287
    29.50000    90.00000     0.00000    35.88287
    29.60000    90.00000     0.00000    35.88287
    29.70000    90.00000     0.00000    35.88287
    29.80000    90.00000     0.00000    35.88287
    29.90000    90.00000     0.00000    35.88287
    30.00000    90.00000     0.00000    35.88287
    30.10000    90.00000     0.00000    35.88287
    30.20000    90.00000     0.00000    35.88287
    30.30000    90.00000     0.00000    35.88287
    30.40000    90.00000     0.00000    35.88287
    30.50000    90.00000     0.00000    35.88287
    30.60000    90.00000     0.00000    35.88287
    30.70000    90.00000     0.00000    35.88287
    30.80000    90.00000     0.00000    35.88287
    30.90000    90.00000     0.00000    35.88287
    31.00000    90.00000     0.00000    35.88287
    31.10000    90.00000     0.00000    35.88287
    31.20000    90.00000     0.00000    35.88287
    31.30000    90.00000     0.00000    35.88287
    31.40000    90.00000     0.00000    35.88287
    31.50000    90.00000     0.00000    35.88287
    31.60000    90.00000     0.00000    35.88287
    31.70000    90.00000     0.00000    35.88287
    31.80000    90.00000     0.00000    35.88287
    31.90000    90.00000     0.00000    35.88287
    32.00000    90.00000     0.00000    35.88287
    32.10000    90.00000     0.00000    35.88287
    32.20000    90.00000     0.00000    35.88287
    32.30000    90.00000     0.00000    35.88287
    32.40000    90.00000     0.00000    35.88287
    32.50000    90.00000     0.00000    35.88287
    32.60000    90.00000     0.00000    35.88287
    32.70000    90.00000     0.00000    35.88287
    32.80000    90.00000     0.00000    35.88287
    32.90000    90.00000     0.00000    35.88287
    33.00000    90.00000     0.00000    35.88287
    33.10000    90.00000     0.00000    35.88287
    33.20000    90.00000     0.00000    35.88287
    33.30000    90.00000     0.00000    35.88287
    33.40000    90.00000     0.00000    35.88287
    33.50000    90.00000     0.00000    35.88287
    33.60000    90.00000     0.00000    35.88287
    33.70000    90.00000     0.00000    35.88287
    33.80000    90.00000     0.00000    35.88287
    33.90000    90.00000     0.00000    35.88287
    34.00000    90.00000     0.00000    35.88287
    34.10000    90.00000     0.00000    35.88287
    34.20000    90.00000     0.00000    35.88287
    34.30000    90.00000     0.00000    35.88287
    34.40000    90.00000     0.00000    35.88287
    34.50000    90.00000     0.00000    35.88287
    34.60000    90.00000     0.00000    35.88287
    34.70000    90.00000     0.00000    35.88287
    34.80000    90.00000     0.00000    35.88287
    34.90000    90.00000     0.00000    35.88287
    35.00000    90.00000     0.00000    35.88287
    35.10000    90.00000     0.00000    35.88287
    35.20000    90.00000     0.00000    35.88287
    35.30000    90.00000     0.00000    35.88287
    35.40000    90.00000     0.00000    35.88287
    35.50000    90.00000     0.00000    35.88287
    35.60000    90.00000     0.00000    35.88287
    35.70000    90.00000     0.00000    35.88287
    35.80000    90.00000     0.00000    35.88287
    35.90000    90.00000     0.00000    35.88287
    36.00000    90.00000     0.00000    35.88287
    36.10000    90.00000     0.00000    35.88287
    36.20000    90.00000     0.00000    35.88287
    36.30000    90.00000     0.00000    35.88287
    36.40000    90.00000     0.00000    35.88287
    36.50000    90.00000     0.00000    35.88287
    36.60000    90.00000     0.00000    35.88287
    36.70000    90.00000     0.00000    35.88287
    36.80000    90.00000     0.00000    35.88287
    36.90000    90.00000     0.00000    35.88287
    37.00000    90.00000     0.00000    35.88287
    37.10000    90.00000     0.00000    35.88287
    37.20000    90.00000     0.00000    35.88287
    37.30000    90.00000     0.00000    35.88287
    37.40000    90.00000     0.00000    35.88287
    37.50000    90.00000     0.00000    35.88287
    37.60000    90.00000     0.00000    35.88287
    37.70000    90.00000     0.00000    35.88287
    37.80000    90.00000     0.00000    35.88287
    37.90000    90.00000     0.00000    35.88287
    38.00000    90.00000     0.00000    35.88287
    38.10000    90.00000     0.00000    35.88287
    38.20000    90.00000     0.00000    35.88287
    38.30000    90.00000     0.00000    35.88287
    38.40000    90.00000     0.00000    35.88287
    38.50000    90.00000     0.00000    35.88287
    38.60000    90.00000     0.00000    35.88287
    38.70000    90.00000     0.00000    35.88287
    38.80000    90.00000     0.00000    35.88287
    38.90000    90.00000     0.00000    35.88287
    39.00000    90.00000     0.00000    35.88287
    39.10000    90.00000     0.00000    35.88287
    39.20000    90.00000     0.00000    35.88287
    39.30000    90.00000     0.00000    35.88287
    39.40000    90.00000     0.00000    35.88287
    39.50000    90.00000     0.00000    35.88287
    39.60000    90.00000     0.00000    35.88287
    39.70000    90.00000     0.00000    35.88287
    39.80000    90.00000     0.00000    35.88287
    39.90000    90.00000     0.00000    35.88287
    40.00000    90.00000     0.00000    35.88287
