 # applied field (T), theta (degree), phi (degree), abs for RE 1-2
     0.00000   180.00000   360.00000     0.09501   180.00000   360.00000     0.09501
     0.10000   179.27104   180.00000     0.09504   178.21572   180.00000     0.09505
     0.20000   178.48040   180.00000     0.09512   176.29722   180.00000     0.09516
     0.30000   177.75194   180.00000     0.09524   174.52187   180.00000     0.09534
     0.40000   177.02396   180.00000     0.09541   172.75503   180.00000     0.09558
     0.50000   176.23496   180.00000     0.09565   170.86462   180.00000     0.09592
     0.60000   175.50851   180.00000     0.09592   169.12374   180.00000     0.09630
     0.70000   174.72164   180.00000     0.09626   167.26697   180.00000     0.09677
     0.80000   173.99750   180.00000     0.09663   165.56231   180.00000     0.09728
     0.90000   173.21368   180.00000     0.09708   163.74950   180.00000     0.09790
     1.00000   172.49276   180.00000     0.09754   162.08991   180.00000     0.09853
     1.10000   171.71305   180.00000     0.09809   160.32974   180.00000     0.09928
     1.20000   170.93593   180.00000     0.09870   158.59970   180.00000     0.10008
     1.30000   170.16173   180.00000     0.09935   156.90138   180.00000     0.10095
     1.40000   169.39075   180.00000     0.10006   155.23612   180.00000     0.10187
     1.50000   168.62330   180.00000     0.10082   153.60502   180.00000     0.10285
     1.60000   167.85966   180.00000     0.10164   152.00894   180.00000     0.10388
     1.70000   167.04134   180.00000     0.10256   150.33816   180.00000     0.10503
     1.80000   166.28645   180.00000     0.10348   148.81639   180.00000     0.10615
     1.90000   165.47812   180.00000     0.10452   147.22594   180.00000     0.10739
     2.00000   164.67527   180.00000     0.10562   145.67723   180.00000     0.10868
     2.10000   163.87798   180.00000     0.10677   144.17009   180.00000     0.11000
     2.20000   163.08624   180.00000     0.10799   142.70418   180.00000     0.11136
     2.30000   162.24394   180.00000     0.10934   141.18513   180.00000     0.11284
     2.40000   161.46342   180.00000     0.11068   139.80270   180.00000     0.11426
     2.50000   160.63275   180.00000     0.11216   138.37111   180.00000     0.11580
     2.60000   159.75285   180.00000     0.11381   136.89757   180.00000     0.11746
     2.70000   158.93291   180.00000     0.11543   135.55481   180.00000     0.11904
     2.80000   158.06321   180.00000     0.11722   134.17302   180.00000     0.12074
     2.90000   157.14390   180.00000     0.11920   132.75875   180.00000     0.12255
     3.00000   156.28132   180.00000     0.12114   131.46804   180.00000     0.12426
     3.10000   155.36725   180.00000     0.12329   130.14669   180.00000     0.12608
     3.20000   154.40079   180.00000     0.12563   128.80045   180.00000     0.12801
     3.30000   153.43341   180.00000     0.12808   127.50213   180.00000     0.12992
     3.40000   152.41017   180.00000     0.13075   126.18462   180.00000     0.13193
     3.50000   151.38183   180.00000     0.13352   124.91529   180.00000     0.13393
     3.60000   150.29271   180.00000     0.13654   123.63148   180.00000     0.13600
     3.70000   149.13950   180.00000     0.13981   122.33747   180.00000     0.13814
     3.80000   147.97277   180.00000     0.14321   121.09285   180.00000     0.14025
     3.90000   146.68010   180.00000     0.14703   119.78766   180.00000     0.14251
     4.00000   145.31080   180.00000     0.15115   118.48300   180.00000     0.14481
     4.10000   143.91692   180.00000     0.15540   117.23080   180.00000     0.14706
     4.20000   142.32383   180.00000     0.16029   115.88585   180.00000     0.14949
     4.30000   140.63884   180.00000     0.16550   114.55253   180.00000     0.15193
     4.40000   138.79860   180.00000     0.17119   113.18895   180.00000     0.15443
     4.50000   136.79749   180.00000     0.17738   111.80161   180.00000     0.15697
     4.60000   134.50730   180.00000     0.18441   110.31761   180.00000     0.15967
     4.70000   131.98292   180.00000     0.19208   108.78998   180.00000     0.16239
     4.80000   129.09519   180.00000     0.20069   107.15618   180.00000     0.16522
     4.90000   125.77825   180.00000     0.21032   105.39977   180.00000     0.16813
     5.00000   121.77538   180.00000     0.22143   103.41310   180.00000     0.17120
     5.10000   116.83537   180.00000     0.23413   101.11183   180.00000     0.17439
     5.20000   110.00439   180.00000     0.24925    98.12163   180.00000     0.17780
     5.30000    96.30180   180.00000     0.26775    92.50603   180.00000     0.18150
     5.40000    90.00000   180.00000     0.26974    90.00000   180.00000     0.18178
     5.50000    90.00000   180.00000     0.26958    90.00000   180.00000     0.18165
     5.60000    90.00000   180.00000     0.26941    90.00000   180.00000     0.18152
     5.70000    90.00000   180.00000     0.26925    90.00000   180.00000     0.18138
     5.80000    90.00000   180.00000     0.26909    90.00000   180.00000     0.18125
     5.90000    90.00000   180.00000     0.26893    90.00000   180.00000     0.18112
     6.00000    90.00000   180.00000     0.26876    90.00000   180.00000     0.18099
     6.10000    90.00000   180.00000     0.26860    90.00000   180.00000     0.18086
     6.20000    90.00000   180.00000     0.26844    90.00000   180.00000     0.18073
     6.30000    90.00000   180.00000     0.26827    90.00000   180.00000     0.18059
     6.40000    90.00000   180.00000     0.26811    90.00000   180.00000     0.18046
     6.50000    90.00000   180.00000     0.26795    90.00000   180.00000     0.18033
     6.60000    90.00000   180.00000     0.26779    90.00000   180.00000     0.18020
     6.70000    90.00000   180.00000     0.26762    90.00000   180.00000     0.18007
     6.80000    90.00000   180.00000     0.26746    90.00000   180.00000     0.17994
     6.90000    90.00000   180.00000     0.26730    90.00000   180.00000     0.17981
     7.00000    90.00000   180.00000     0.26714    90.00000   180.00000     0.17967
     7.10000    90.00000   180.00000     0.26697    90.00000   180.00000     0.17954
     7.20000    90.00000   180.00000     0.26681    90.00000   180.00000     0.17941
     7.30000    90.00000   180.00000     0.26665    90.00000   180.00000     0.17928
     7.40000    90.00000   180.00000     0.26649    90.00000   180.00000     0.17915
     7.50000    90.00000   180.00000     0.26632    90.00000   180.00000     0.17902
     7.60000    90.00000   180.00000     0.26616    90.00000   180.00000     0.17888
     7.70000    90.00000   180.00000     0.26600    90.00000   180.00000     0.17875
     7.80000    90.00000   180.00000     0.26584    90.00000   180.00000     0.17862
     7.90000    90.00000   180.00000     0.26567    90.00000   180.00000     0.17849
     8.00000    90.00000   180.00000     0.26551    90.00000   180.00000     0.17836
     8.10000    90.00000   180.00000     0.26535    90.00000   180.00000     0.17823
     8.20000    90.00000   180.00000     0.26519    90.00000   180.00000     0.17810
     8.30000    90.00000   180.00000     0.26502    90.00000   180.00000     0.17797
     8.40000    90.00000   180.00000     0.26486    90.00000   180.00000     0.17783
     8.50000    90.00000   180.00000     0.26470    90.00000   180.00000     0.17770
     8.60000    90.00000   180.00000     0.26454    90.00000   180.00000     0.17757
     8.70000    90.00000   180.00000     0.26438    90.00000   180.00000     0.17744
     8.80000    90.00000   180.00000     0.26421    90.00000   180.00000     0.17731
     8.90000    90.00000   180.00000     0.26405    90.00000   180.00000     0.17718
     9.00000    90.00000   180.00000     0.26389    90.00000   180.00000     0.17705
     9.10000    90.00000   180.00000     0.26373    90.00000   180.00000     0.17691
     9.20000    90.00000   180.00000     0.26356    90.00000   180.00000     0.17678
     9.30000    90.00000   180.00000     0.26340    90.00000   180.00000     0.17665
     9.40000    90.00000   180.00000     0.26324    90.00000   180.00000     0.17652
     9.50000    90.00000   180.00000     0.26308    90.00000   180.00000     0.17639
     9.60000    90.00000   180.00000     0.26292    90.00000   180.00000     0.17626
     9.70000    90.00000   180.00000     0.26275    90.00000   180.00000     0.17613
     9.80000    90.00000   180.00000     0.26259    90.00000   180.00000     0.17600
     9.90000    90.00000   180.00000     0.26243    90.00000   180.00000     0.17586
    10.00000    90.00000   180.00000     0.26227    90.00000   180.00000     0.17573
    10.10000    90.00000   180.00000     0.26211    90.00000   180.00000     0.17560
    10.20000    90.00000   180.00000     0.26194    90.00000   180.00000     0.17547
    10.30000    90.00000   180.00000     0.26178    90.00000   180.00000     0.17534
    10.40000    90.00000   180.00000     0.26162    90.00000   180.00000     0.17521
    10.50000    90.00000   180.00000     0.26146    90.00000   180.00000     0.17508
    10.60000    90.00000   180.00000     0.26130    90.00000   180.00000     0.17495
    10.70000    90.00000   180.00000     0.26113    90.00000   180.00000     0.17482
    10.80000    90.00000   180.00000     0.26097    90.00000   180.00000     0.17468
    10.90000    90.00000   180.00000     0.26081    90.00000   180.00000     0.17455
    11.00000    90.00000   180.00000     0.26065    90.00000   180.00000     0.17442
    11.10000    90.00000   180.00000     0.26049    90.00000   180.00000     0.17429
    11.20000    90.00000   180.00000     0.26033    90.00000   180.00000     0.17416
    11.30000    90.00000   180.00000     0.26016    90.00000   180.00000     0.17403
    11.40000    90.00000   180.00000     0.26000    90.00000   180.00000     0.17390
    11.50000    90.00000   180.00000     0.25984    90.00000   180.00000     0.17377
    11.60000    90.00000   180.00000     0.25968    90.00000   180.00000     0.17364
    11.70000    90.00000   180.00000     0.25952    90.00000   180.00000     0.17351
    11.80000    90.00000   180.00000     0.25936    90.00000   180.00000     0.17337
    11.90000    90.00000   180.00000     0.25919    90.00000   180.00000     0.17324
    12.00000    90.00000   180.00000     0.25903    90.00000   180.00000     0.17311
    12.10000    90.00000   180.00000     0.25887    90.00000   180.00000     0.17298
    12.20000    90.00000   180.00000     0.25871    90.00000   180.00000     0.17285
    12.30000    90.00000   180.00000     0.25855    90.00000   180.00000     0.17272
    12.40000    90.00000   180.00000     0.25839    90.00000   180.00000     0.17259
    12.50000    90.00000   180.00000     0.25822    90.00000   180.00000     0.17246
    12.60000    90.00000   180.00000     0.25806    90.00000   180.00000     0.17233
    12.70000    90.00000   180.00000     0.25790    90.00000   180.00000     0.17220
    12.80000    90.00000   180.00000     0.25774    90.00000   180.00000     0.17207
    12.90000    90.00000   180.00000     0.25758    90.00000   180.00000     0.17193
    13.00000    90.00000   180.00000     0.25742    90.00000   180.00000     0.17180
    13.10000    90.00000   180.00000     0.25726    90.00000   180.00000     0.17167
    13.20000    90.00000   180.00000     0.25710    90.00000   180.00000     0.17154
    13.30000    90.00000   180.00000     0.25693    90.00000   180.00000     0.17141
    13.40000    90.00000   180.00000     0.25677    90.00000   180.00000     0.17128
    13.50000    90.00000   180.00000     0.25661    90.00000   180.00000     0.17115
    13.60000    90.00000   180.00000     0.25645    90.00000   180.00000     0.17102
    13.70000    90.00000   180.00000     0.25629    90.00000   180.00000     0.17089
    13.80000    90.00000   180.00000     0.25613    90.00000   180.00000     0.17076
    13.90000    90.00000   180.00000     0.25597    90.00000   180.00000     0.17063
    14.00000    90.00000   180.00000     0.25581    90.00000   180.00000     0.17050
    14.10000    90.00000   180.00000     0.25564    90.00000   180.00000     0.17037
    14.20000    90.00000   180.00000     0.25548    90.00000   180.00000     0.17023
    14.30000    90.00000   180.00000     0.25532    90.00000   180.00000     0.17010
    14.40000    90.00000   180.00000     0.25516    90.00000   180.00000     0.16997
    14.50000    90.00000   180.00000     0.25500    90.00000   180.00000     0.16984
    14.60000    90.00000   180.00000     0.25484    90.00000   180.00000     0.16971
    14.70000    90.00000   180.00000     0.25468    90.00000   180.00000     0.16958
    14.80000    90.00000   180.00000     0.25452    90.00000   180.00000     0.16945
    14.90000    90.00000   180.00000     0.25436    90.00000   180.00000     0.16932
    15.00000    90.00000   180.00000     0.25419    90.00000   180.00000     0.16919
    15.10000    90.00000   180.00000     0.25403    90.00000   180.00000     0.16906
    15.20000    90.00000   180.00000     0.25387    90.00000   180.00000     0.16893
    15.30000    90.00000   180.00000     0.25371    90.00000   180.00000     0.16880
    15.40000    90.00000   180.00000     0.25355    90.00000   180.00000     0.16867
    15.50000    90.00000   180.00000     0.25339    90.00000   180.00000     0.16854
    15.60000    90.00000   180.00000     0.25323    90.00000   180.00000     0.16841
    15.70000    90.00000   180.00000     0.25307    90.00000   180.00000     0.16828
    15.80000    90.00000   180.00000     0.25291    90.00000   180.00000     0.16815
    15.90000    90.00000   180.00000     0.25275    90.00000   180.00000     0.16801
    16.00000    90.00000   180.00000     0.25259    90.00000   180.00000     0.16788
    16.10000    90.00000   180.00000     0.25243    90.00000   180.00000     0.16775
    16.20000    90.00000   180.00000     0.25226    90.00000   180.00000     0.16762
    16.30000    90.00000   180.00000     0.25210    90.00000   180.00000     0.16749
    16.40000    90.00000   180.00000     0.25194    90.00000   180.00000     0.16736
    16.50000    90.00000   180.00000     0.25178    90.00000   180.00000     0.16723
    16.60000    90.00000   180.00000     0.25162    90.00000   180.00000     0.16710
    16.70000    90.00000   180.00000     0.25146    90.00000   180.00000     0.16697
    16.80000    90.00000   180.00000     0.25130    90.00000   180.00000     0.16684
    16.90000    90.00000   180.00000     0.25114    90.00000   180.00000     0.16671
    17.00000    90.00000   180.00000     0.25098    90.00000   180.00000     0.16658
    17.10000    90.00000   180.00000     0.25082    90.00000   180.00000     0.16645
    17.20000    90.00000   180.00000     0.25066    90.00000   180.00000     0.16632
    17.30000    90.00000   180.00000     0.25050    90.00000   180.00000     0.16619
    17.40000    90.00000   180.00000     0.25034    90.00000   180.00000     0.16606
    17.50000    90.00000   180.00000     0.25018    90.00000   180.00000     0.16593
    17.60000    90.00000   180.00000     0.25002    90.00000   180.00000     0.16580
    17.70000    90.00000   180.00000     0.24986    90.00000   180.00000     0.16567
    17.80000    90.00000   180.00000     0.24969    90.00000   180.00000     0.16554
    17.90000    90.00000   180.00000     0.24953    90.00000   180.00000     0.16541
    18.00000    90.00000   180.00000     0.24937    90.00000   180.00000     0.16528
    18.10000    90.00000   180.00000     0.24921    90.00000   180.00000     0.16515
    18.20000    90.00000   180.00000     0.24905    90.00000   180.00000     0.16502
    18.30000    90.00000   180.00000     0.24889    90.00000   180.00000     0.16489
    18.40000    90.00000   180.00000     0.24873    90.00000   180.00000     0.16476
    18.50000    90.00000   180.00000     0.24857    90.00000   180.00000     0.16463
    18.60000    90.00000   180.00000     0.24841    90.00000   180.00000     0.16450
    18.70000    90.00000   180.00000     0.24825    90.00000   180.00000     0.16437
    18.80000    90.00000   180.00000     0.24809    90.00000   180.00000     0.16424
    18.90000    90.00000   180.00000     0.24793    90.00000   180.00000     0.16410
    19.00000    90.00000   180.00000     0.24777    90.00000   180.00000     0.16397
    19.10000    90.00000   180.00000     0.24761    90.00000   180.00000     0.16384
    19.20000    90.00000   180.00000     0.24745    90.00000   180.00000     0.16371
    19.30000    90.00000   180.00000     0.24729    90.00000   180.00000     0.16358
    19.40000    90.00000   180.00000     0.24713    90.00000   180.00000     0.16345
    19.50000    90.00000   180.00000     0.24697    90.00000   180.00000     0.16332
    19.60000    90.00000   180.00000     0.24681    90.00000   180.00000     0.16319
    19.70000    90.00000   180.00000     0.24665    90.00000   180.00000     0.16306
    19.80000    90.00000   180.00000     0.24649    90.00000   180.00000     0.16293
    19.90000    90.00000   180.00000     0.24633    90.00000   180.00000     0.16280
    20.00000    90.00000   180.00000     0.24617    90.00000   180.00000     0.16267
    20.10000    90.00000   180.00000     0.24601    90.00000   180.00000     0.16254
    20.20000    90.00000   180.00000     0.24585    90.00000   180.00000     0.16241
    20.30000    90.00000   180.00000     0.24569    90.00000   180.00000     0.16228
    20.40000    90.00000   180.00000     0.24553    90.00000   180.00000     0.16215
    20.50000    90.00000   180.00000     0.24537    90.00000   180.00000     0.16202
    20.60000    90.00000   180.00000     0.24521    90.00000   180.00000     0.16189
    20.70000    90.00000   180.00000     0.24505    90.00000   180.00000     0.16176
    20.80000    90.00000   180.00000     0.24489    90.00000   180.00000     0.16163
    20.90000    90.00000   180.00000     0.24473    90.00000   180.00000     0.16150
    21.00000    90.00000   180.00000     0.24457    90.00000   180.00000     0.16137
    21.10000    90.00000   180.00000     0.24441    90.00000   180.00000     0.16124
    21.20000    90.00000   180.00000     0.24425    90.00000   180.00000     0.16111
    21.30000    90.00000   180.00000     0.24409    90.00000   180.00000     0.16098
    21.40000    90.00000   180.00000     0.24393    90.00000   180.00000     0.16085
    21.50000    90.00000   180.00000     0.24377    90.00000   180.00000     0.16072
    21.60000    90.00000   180.00000     0.24361    90.00000   180.00000     0.16059
    21.70000    90.00000   180.00000     0.24345    90.00000   180.00000     0.16046
    21.80000    90.00000   180.00000     0.24329    90.00000   180.00000     0.16033
    21.90000    90.00000   180.00000     0.24313    90.00000   180.00000     0.16021
    22.00000    90.00000   180.00000     0.24297    90.00000   180.00000     0.16008
    22.10000    90.00000   180.00000     0.24281    90.00000   180.00000     0.15995
    22.20000    90.00000   180.00000     0.24265    90.00000   180.00000     0.15982
    22.30000    90.00000   180.00000     0.24249    90.00000   180.00000     0.15969
    22.40000    90.00000   180.00000     0.24233    90.00000   180.00000     0.15956
    22.50000    90.00000   180.00000     0.24217    90.00000   180.00000     0.15943
    22.60000    90.00000   180.00000     0.24201    90.00000   180.00000     0.15930
    22.70000    90.00000   180.00000     0.24185    90.00000   180.00000     0.15917
    22.80000    90.00000   180.00000     0.24169    90.00000   180.00000     0.15904
    22.90000    90.00000   180.00000     0.24153    90.00000   180.00000     0.15891
    23.00000    90.00000   180.00000     0.24137    90.00000   180.00000     0.15878
    23.10000    90.00000   180.00000     0.24121    90.00000   180.00000     0.15865
    23.20000    90.00000   180.00000     0.24105    90.00000   180.00000     0.15852
    23.30000    90.00000   180.00000     0.24089    90.00000   180.00000     0.15839
    23.40000    90.00000   180.00000     0.24073    90.00000   180.00000     0.15826
    23.50000    90.00000   180.00000     0.24057    90.00000   180.00000     0.15813
    23.60000    90.00000   180.00000     0.24041    90.00000   180.00000     0.15800
    23.70000    90.00000   180.00000     0.24025    90.00000   180.00000     0.15787
    23.80000    90.00000   180.00000     0.24009    90.00000   180.00000     0.15774
    23.90000    90.00000   180.00000     0.23993    90.00000   180.00000     0.15761
    24.00000    90.00000   180.00000     0.23978    90.00000   180.00000     0.15748
    24.10000    90.00000   180.00000     0.23962    90.00000   180.00000     0.15735
    24.20000    90.00000   180.00000     0.23946    90.00000   180.00000     0.15722
    24.30000    90.00000   180.00000     0.23930    90.00000   180.00000     0.15709
    24.40000    90.00000   180.00000     0.23914    90.00000   180.00000     0.15696
    24.50000    90.00000   180.00000     0.23898    90.00000   180.00000     0.15683
    24.60000    90.00000   180.00000     0.23882    90.00000   180.00000     0.15670
    24.70000    90.00000   180.00000     0.23866    90.00000   180.00000     0.15657
    24.80000    90.00000   180.00000     0.23850    90.00000   180.00000     0.15644
    24.90000    90.00000   180.00000     0.23834    90.00000   180.00000     0.15632
    25.00000    90.00000   180.00000     0.23818    90.00000   180.00000     0.15619
    25.10000    90.00000   180.00000     0.23802    90.00000   180.00000     0.15606
    25.20000    90.00000   180.00000     0.23786    90.00000   180.00000     0.15593
    25.30000    90.00000   180.00000     0.23770    90.00000   180.00000     0.15580
    25.40000    90.00000   180.00000     0.23754    90.00000   180.00000     0.15567
    25.50000    90.00000   180.00000     0.23738    90.00000   180.00000     0.15554
    25.60000    90.00000   180.00000     0.23722    90.00000   180.00000     0.15541
    25.70000    90.00000   180.00000     0.23706    90.00000   180.00000     0.15528
    25.80000    90.00000   180.00000     0.23690    90.00000   180.00000     0.15515
    25.90000    90.00000   180.00000     0.23675    90.00000   180.00000     0.15502
    26.00000    90.00000   180.00000     0.23659    90.00000   180.00000     0.15489
    26.10000    90.00000   180.00000     0.23643    90.00000   180.00000     0.15476
    26.20000    90.00000   180.00000     0.23627    90.00000   180.00000     0.15463
    26.30000    90.00000   180.00000     0.23611    90.00000   180.00000     0.15450
    26.40000    90.00000   180.00000     0.23595    90.00000   180.00000     0.15437
    26.50000    90.00000   180.00000     0.23579    90.00000   180.00000     0.15424
    26.60000    90.00000   180.00000     0.23563    90.00000   180.00000     0.15412
    26.70000    90.00000   180.00000     0.23547    90.00000   180.00000     0.15399
    26.80000    90.00000   180.00000     0.23531    90.00000   180.00000     0.15386
    26.90000    90.00000   180.00000     0.23515    90.00000   180.00000     0.15373
    27.00000    90.00000   180.00000     0.23500    90.00000   180.00000     0.15360
    27.10000    90.00000   180.00000     0.23484    90.00000   180.00000     0.15347
    27.20000    90.00000   180.00000     0.23468    90.00000   180.00000     0.15334
    27.30000    90.00000   180.00000     0.23452    90.00000   180.00000     0.15321
    27.40000    90.00000   180.00000     0.23436    90.00000   180.00000     0.15308
    27.50000    90.00000   180.00000     0.23420    90.00000   180.00000     0.15295
    27.60000    90.00000   180.00000     0.23404    90.00000   180.00000     0.15282
    27.70000    90.00000   180.00000     0.23388    90.00000   180.00000     0.15269
    27.80000    90.00000   180.00000     0.23372    90.00000   180.00000     0.15256
    27.90000    90.00000   180.00000     0.23356    90.00000   180.00000     0.15243
    28.00000    90.00000   180.00000     0.23341    90.00000   180.00000     0.15231
    28.10000    90.00000   180.00000     0.23325    90.00000   180.00000     0.15218
    28.20000    90.00000   180.00000     0.23309    90.00000   180.00000     0.15205
    28.30000    90.00000   180.00000     0.23293    90.00000   180.00000     0.15192
    28.40000    90.00000   180.00000     0.23277    90.00000   180.00000     0.15179
    28.50000    90.00000   180.00000     0.23261    90.00000   180.00000     0.15166
    28.60000    90.00000   180.00000     0.23245    90.00000   180.00000     0.15153
    28.70000    90.00000   180.00000     0.23229    90.00000   180.00000     0.15140
    28.80000    90.00000   180.00000     0.23213    90.00000   180.00000     0.15127
    28.90000    90.00000   180.00000     0.23198    90.00000   180.00000     0.15114
    29.00000    90.00000   180.00000     0.23182    90.00000   180.00000     0.15101
    29.10000    90.00000   180.00000     0.23166    90.00000   180.00000     0.15089
    29.20000    90.00000   180.00000     0.23150    90.00000   180.00000     0.15076
    29.30000    90.00000   180.00000     0.23134    90.00000   180.00000     0.15063
    29.40000    90.00000   180.00000     0.23118    90.00000   180.00000     0.15050
    29.50000    90.00000   180.00000     0.23102    90.00000   180.00000     0.15037
    29.60000    90.00000   180.00000     0.23086    90.00000   180.00000     0.15024
    29.70000    90.00000   180.00000     0.23071    90.00000   180.00000     0.15011
    29.80000    90.00000   180.00000     0.23055    90.00000   180.00000     0.14998
    29.90000    90.00000   180.00000     0.23039    90.00000   180.00000     0.14985
    30.00000    90.00000   180.00000     0.23023    90.00000   180.00000     0.14972
    30.10000    90.00000   180.00000     0.23007    90.00000   180.00000     0.14960
    30.20000    90.00000   180.00000     0.22991    90.00000   180.00000     0.14947
    30.30000    90.00000   180.00000     0.22975    90.00000   180.00000     0.14934
    30.40000    90.00000   180.00000     0.22959    90.00000   180.00000     0.14921
    30.50000    90.00000   180.00000     0.22944    90.00000   180.00000     0.14908
    30.60000    90.00000   180.00000     0.22928    90.00000   180.00000     0.14895
    30.70000    90.00000   180.00000     0.22912    90.00000   180.00000     0.14882
    30.80000    90.00000   180.00000     0.22896    90.00000   180.00000     0.14869
    30.90000    90.00000   180.00000     0.22880    90.00000   180.00000     0.14856
    31.00000    90.00000   180.00000     0.22864    90.00000   180.00000     0.14844
    31.10000    90.00000   180.00000     0.22848    90.00000   180.00000     0.14831
    31.20000    90.00000   180.00000     0.22833    90.00000   180.00000     0.14818
    31.30000    90.00000   180.00000     0.22817    90.00000   180.00000     0.14805
    31.40000    90.00000   180.00000     0.22801    90.00000   180.00000     0.14792
    31.50000    90.00000   180.00000     0.22785    90.00000   180.00000     0.14779
    31.60000    90.00000   180.00000     0.22769    90.00000   180.00000     0.14766
    31.70000    90.00000   180.00000     0.22753    90.00000   180.00000     0.14753
    31.80000    90.00000   180.00000     0.22738    90.00000   180.00000     0.14741
    31.90000    90.00000   180.00000     0.22722    90.00000   180.00000     0.14728
    32.00000    90.00000   180.00000     0.22706    90.00000   180.00000     0.14715
    32.10000    90.00000   180.00000     0.22690    90.00000   180.00000     0.14702
    32.20000    90.00000   180.00000     0.22674    90.00000   180.00000     0.14689
    32.30000    90.00000   180.00000     0.22658    90.00000   180.00000     0.14676
    32.40000    90.00000   180.00000     0.22643    90.00000   180.00000     0.14663
    32.50000    90.00000   180.00000     0.22627    90.00000   180.00000     0.14650
    32.60000    90.00000   180.00000     0.22611    90.00000   180.00000     0.14638
    32.70000    90.00000   180.00000     0.22595    90.00000   180.00000     0.14625
    32.80000    90.00000   180.00000     0.22579    90.00000   180.00000     0.14612
    32.90000    90.00000   180.00000     0.22563    90.00000   180.00000     0.14599
    33.00000    90.00000   180.00000     0.22548    90.00000   180.00000     0.14586
    33.10000    90.00000   180.00000     0.22532    90.00000   180.00000     0.14573
    33.20000    90.00000   180.00000     0.22516    90.00000   180.00000     0.14560
    33.30000    90.00000   180.00000     0.22500    90.00000   180.00000     0.14548
    33.40000    90.00000   180.00000     0.22484    90.00000   180.00000     0.14535
    33.50000    90.00000   180.00000     0.22469    90.00000   180.00000     0.14522
    33.60000    90.00000   180.00000     0.22453    90.00000   180.00000     0.14509
    33.70000    90.00000   180.00000     0.22437    90.00000   180.00000     0.14496
    33.80000    90.00000   180.00000     0.22421    90.00000   180.00000     0.14483
    33.90000    90.00000   180.00000     0.22405    90.00000   180.00000     0.14470
    34.00000    90.00000   180.00000     0.22390    90.00000   180.00000     0.14458
    34.10000    90.00000   180.00000     0.22374    90.00000   180.00000     0.14445
    34.20000    90.00000   180.00000     0.22358    90.00000   180.00000     0.14432
    34.30000    90.00000   180.00000     0.22342    90.00000   180.00000     0.14419
    34.40000    90.00000   180.00000     0.22326    90.00000   180.00000     0.14406
    34.50000    90.00000   180.00000     0.22311    90.00000   180.00000     0.14393
    34.60000    90.00000   180.00000     0.22295    90.00000   180.00000     0.14380
    34.70000    90.00000   180.00000     0.22279    90.00000   180.00000     0.14368
    34.80000    90.00000   180.00000     0.22263    90.00000   180.00000     0.14355
    34.90000    90.00000   180.00000     0.22248    90.00000   180.00000     0.14342
    35.00000    90.00000   180.00000     0.22232    90.00000   180.00000     0.14329
    35.10000    90.00000   180.00000     0.22216    90.00000   180.00000     0.14316
    35.20000    90.00000   180.00000     0.22200    90.00000   180.00000     0.14303
    35.30000    90.00000   180.00000     0.22184    90.00000   180.00000     0.14291
    35.40000    90.00000   180.00000     0.22169    90.00000   180.00000     0.14278
    35.50000    90.00000   180.00000     0.22153    90.00000   180.00000     0.14265
    35.60000    90.00000   180.00000     0.22137    90.00000   180.00000     0.14252
    35.70000    90.00000   180.00000     0.22121    90.00000   180.00000     0.14239
    35.80000    90.00000   180.00000     0.22106    90.00000   180.00000     0.14226
    35.90000    90.00000   180.00000     0.22090    90.00000   180.00000     0.14214
    36.00000    90.00000   180.00000     0.22074    90.00000   180.00000     0.14201
    36.10000    90.00000   180.00000     0.22058    90.00000   180.00000     0.14188
    36.20000    90.00000   180.00000     0.22043    90.00000   180.00000     0.14175
    36.30000    90.00000   180.00000     0.22027    90.00000   180.00000     0.14162
    36.40000    90.00000   180.00000     0.22011    90.00000   180.00000     0.14149
    36.50000    90.00000   180.00000     0.21995    90.00000   180.00000     0.14137
    36.60000    90.00000   180.00000     0.21980    90.00000   180.00000     0.14124
    36.70000    90.00000   180.00000     0.21964    90.00000   180.00000     0.14111
    36.80000    90.00000   180.00000     0.21948    90.00000   180.00000     0.14098
    36.90000    90.00000   180.00000     0.21932    90.00000   180.00000     0.14085
    37.00000    90.00000   180.00000     0.21917    90.00000   180.00000     0.14072
    37.10000    90.00000   180.00000     0.21901    90.00000   180.00000     0.14060
    37.20000    90.00000   180.00000     0.21885    90.00000   180.00000     0.14047
    37.30000    90.00000   180.00000     0.21870    90.00000   180.00000     0.14034
    37.40000    90.00000   180.00000     0.21854    90.00000   180.00000     0.14021
    37.50000    90.00000   180.00000     0.21838    90.00000   180.00000     0.14008
    37.60000    90.00000   180.00000     0.21822    90.00000   180.00000     0.13995
    37.70000    90.00000   180.00000     0.21807    90.00000   180.00000     0.13983
    37.80000    90.00000   180.00000     0.21791    90.00000   180.00000     0.13970
    37.90000    90.00000   180.00000     0.21775    90.00000   180.00000     0.13957
    38.00000    90.00000   180.00000     0.21759    90.00000   180.00000     0.13944
    38.10000    90.00000   180.00000     0.21744    90.00000   180.00000     0.13931
    38.20000    90.00000   180.00000     0.21728    90.00000   180.00000     0.13919
    38.30000    90.00000   180.00000     0.21712    90.00000   180.00000     0.13906
    38.40000    90.00000   180.00000     0.21697    90.00000   180.00000     0.13893
    38.50000    90.00000   180.00000     0.21681    90.00000   180.00000     0.13880
    38.60000    90.00000   180.00000     0.21665    90.00000   180.00000     0.13867
    38.70000    90.00000   180.00000     0.21650    90.00000   180.00000     0.13855
    38.80000    90.00000   180.00000     0.21634    90.00000   180.00000     0.13842
    38.90000    90.00000   180.00000     0.21618    90.00000   180.00000     0.13829
    39.00000    90.00000   180.00000     0.21603    90.00000   180.00000     0.13816
    39.10000    90.00000   180.00000     0.21587    90.00000   180.00000     0.13803
    39.20000    90.00000   180.00000     0.21571    90.00000   180.00000     0.13791
    39.30000    90.00000   180.00000     0.21555    90.00000   180.00000     0.13778
    39.40000    90.00000   180.00000     0.21540    90.00000   180.00000     0.13765
    39.50000    90.00000   180.00000     0.21524    90.00000   180.00000     0.13752
    39.60000    90.00000   180.00000     0.21508    90.00000   180.00000     0.13739
    39.70000    90.00000   180.00000     0.21493    90.00000   180.00000     0.13727
    39.80000    90.00000   180.00000     0.21477    90.00000   180.00000     0.13714
    39.90000    90.00000   180.00000     0.21461    90.00000   180.00000     0.13701
    40.00000    90.00000   180.00000     0.21446    90.00000   180.00000     0.13688
