 # applied field (T), theta (degree), phi (degree), abs [muB/unitcell], abs [T]
       0.00000000      90.00000000      45.42851978      36.92440421       1.28580981
       0.10000000      89.60273290      45.42851978      36.92438902       1.28580928
       0.20000000      89.20546513      45.42851979      36.92434345       1.28580770
       0.30000000      88.80819600      45.42851980      36.92426752       1.28580505
       0.40000000      88.41092485      44.57148018      36.92416122       1.28580135
       0.50000000      87.95699921      45.42851984      36.92400090       1.28579577
       0.60000000      87.55972142      45.42851987      36.92382928       1.28578979
       0.70000000      87.16243949      45.42851990      36.92362737       1.28578276
       0.80000000      86.76515273      45.42851993      36.92339520       1.28577468
       0.90000000      86.36786048      45.42851997      36.92313279       1.28576554
       1.00000000      85.97056205      44.57147999      36.92284020       1.28575535
       1.10000000      85.57325679      44.57147994      36.92251747       1.28574411
       1.20000000      85.17594401      45.42852011      36.92216463       1.28573182
       1.30000000      84.77862305      45.42852017      36.92178176       1.28571849
       1.40000000      84.32463257      44.57147976      36.92130276       1.28570181
       1.50000000      83.92729174      45.42852031      36.92085538       1.28568623
       1.60000000      83.52994063      44.57147962      36.92037814       1.28566961
       1.70000000      83.13257864      45.00000000      36.91987157       1.28565197
       1.80000000      82.73520494      45.00000000      36.91933485       1.28563328
       1.90000000      82.33781894      45.00000000      36.91876852       1.28561356
       2.00000000      81.94041998      45.00000000      36.91817265       1.28559281
       2.10000000      81.54300740      45.00000000      36.91754733       1.28557104
       2.20000000      81.08890495      45.00000000      36.91678938       1.28554464
       2.30000000      80.69146086      45.00000000      36.91610096       1.28552067
       2.40000000      80.29400105      45.00000000      36.91538340       1.28549568
       2.50000000      79.89652488      45.00000000      36.91463683       1.28546969
       2.60000000      79.49903156      45.43684215      36.91386089       1.28544267
       2.70000000      79.10152069      45.43684227      36.91305661       1.28541466
       2.80000000      78.70399148      44.56315760      36.91222365       1.28538565
       2.90000000      78.30644330      44.56315747      36.91136215       1.28535565
       3.00000000      77.90887548      44.56315734      36.91047223       1.28532466
       3.10000000      77.45458726      44.56315718      36.90941021       1.28528768
       3.20000000      77.05697506      44.56315703      36.90845954       1.28525458
       3.30000000      76.65934135      45.00000000      36.90748132       1.28522051
       3.40000000      76.26168517      45.00000000      36.90647485       1.28518546
       3.50000000      75.86400603      45.00000000      36.90544071       1.28514945
       3.60000000      75.46630330      45.00000000      36.90437905       1.28511248
       3.70000000      75.06857634      45.00000000      36.90329005       1.28507456
       3.80000000      74.67082432      45.44549430      36.90217344       1.28503568
       3.90000000      74.21631823      44.55450550      36.90085178       1.28498965
       4.00000000      73.81851084      44.55450532      36.89967762       1.28494876
       4.10000000      73.42067659      45.44549487      36.89847684       1.28490695
       4.20000000      73.02281488      44.55450494      36.89724962       1.28486421
       4.30000000      72.62492529      45.00000000      36.89599657       1.28482058
       4.40000000      72.22700678      45.00000000      36.89471705       1.28477602
       4.50000000      71.82905894      45.00000000      36.89341168       1.28473057
       4.60000000      71.37432212      45.00000000      36.89187319       1.28467699
       4.70000000      70.97630895      44.54550397      36.89051239       1.28462961
       4.80000000      70.57826476      45.45449624      36.88912681       1.28458136
       4.90000000      70.18018872      44.54550353      36.88771626       1.28453224
       5.00000000      69.78208023      44.54550330      36.88628096       1.28448226
       5.10000000      69.38393893      45.00000000      36.88482153       1.28443143
       5.20000000      68.98576375      45.00000000      36.88333741       1.28437975
       5.30000000      68.53076035      45.00000000      36.88159432       1.28431905
       5.40000000      68.13251086      45.00000000      36.88005863       1.28426558
       5.50000000      67.73422560      44.53613098      36.87849901       1.28421127
       5.60000000      67.33590454      44.53613072      36.87691651       1.28415616
       5.70000000      66.93754683      44.53613046      36.87531097       1.28410025
       5.80000000      66.53915217      45.00000000      36.87368306       1.28404356
       5.90000000      66.08389183      45.00000000      36.87177518       1.28397712
       6.00000000      65.68541498      45.00000000      36.87009867       1.28391874
       6.10000000      65.28689884      44.52636365      36.86839984       1.28385959
       6.20000000      64.88834344      45.47363664      36.86667976       1.28379969
       6.30000000      64.48974794      44.52636308      36.86493831       1.28373905
       6.40000000      64.03425383      45.00000000      36.86290167       1.28366812
       6.50000000      63.63557029      45.00000000      36.86111510       1.28360591
       6.60000000      63.23684494      45.00000000      36.85930808       1.28354299
       6.70000000      62.83807693      44.51617608      36.85748054       1.28347935
       6.80000000      62.43926636      44.51617576      36.85563353       1.28341503
       6.90000000      61.98352137      45.48382460      36.85347621       1.28333990
       7.00000000      61.58461722      45.00000000      36.85158778       1.28327414
       7.10000000      61.18566826      45.00000000      36.84968013       1.28320771
       7.20000000      60.78667430      45.00000000      36.84775395       1.28314064
       7.30000000      60.33071553      44.50554051      36.84550618       1.28306237
       7.40000000      59.93162314      45.49445983      36.84354109       1.28299394
       7.50000000      59.53248420      44.50553983      36.84155852       1.28292490
       7.60000000      59.13329855      45.00000000      36.83955913       1.28285527
       7.70000000      58.67711686      45.00000000      36.83722815       1.28277410
       7.80000000      58.27782779      45.50557276      36.83519221       1.28270320
       7.90000000      57.87849055      45.50557313      36.83314056       1.28263176
       8.00000000      57.42213350      45.00000000      36.83075101       1.28254855
       8.10000000      57.02269039      45.00000000      36.82866589       1.28247594
       8.20000000      56.62319735      45.00000000      36.82656586       1.28240281
       8.30000000      56.16665871      45.51719713      36.82412087       1.28231767
       8.40000000      55.76705681      44.48280248      36.82198987       1.28224346
       8.50000000      55.36740398      45.00000000      36.81984546       1.28216879
       8.60000000      54.91067991      45.00000000      36.81735029       1.28208190
       8.70000000      54.51091465      44.47063186      36.81517686       1.28200621
       8.80000000      54.05406106      44.47063140      36.81264967       1.28191821
       8.90000000      53.65418263      44.47063099      36.81044998       1.28184161
       9.00000000      53.25425116      45.00000000      36.80823895       1.28176462
       9.10000000      52.79720406      45.00000000      36.80566875       1.28167512
       9.20000000      52.39715571      44.45787377      36.80343327       1.28159727
       9.30000000      51.93997409      45.54212672      36.80083632       1.28150684
       9.40000000      51.53980872      45.00000000      36.79857950       1.28142825
       9.50000000      51.08249071      45.00000000      36.79595799       1.28133696
       9.60000000      50.68220520      45.55551397      36.79368062       1.28125766
       9.70000000      50.22474902      44.44448552      36.79103683       1.28116559
       9.80000000      49.82434344      45.00000000      36.78874203       1.28108568
       9.90000000      49.36674740      45.00000000      36.78607824       1.28099292
      10.00000000      48.90907551      45.56957967      36.78340433       1.28089981
      10.10000000      48.50848132      44.43041986      36.78108550       1.28081906
      10.20000000      48.05066799      45.00000000      36.77839575       1.28072539
      10.30000000      47.64994955      45.00000000      36.77606412       1.28064420
      10.40000000      47.19199180      45.58437602      36.77335987       1.28055003
      10.50000000      46.73395746      45.00000000      36.77064955       1.28045565
      10.60000000      46.27584498      45.00000000      36.76793309       1.28036106
      10.70000000      45.81765403      45.59996110      36.76521119       1.28026627
      10.80000000      45.41660671      45.59996160      36.76285596       1.28018426
      10.90000000      44.95826980      45.00000000      36.76012703       1.28008923
      11.00000000      44.49985356      45.00000000      36.75739475       1.27999408
      11.10000000      44.04135771      45.61640068      36.75465985       1.27989884
      11.20000000      43.58278322      45.00000000      36.75192378       1.27980357
      11.30000000      43.12412866      45.00000000      36.74918657       1.27970825
      11.40000000      42.66539383      44.36623408      36.74644898       1.27961292
      11.50000000      42.20657975      45.00000000      36.74371243       1.27951763
      11.60000000      41.74768506      45.00000000      36.74097700       1.27942237
      11.70000000      41.28870960      44.34786217      36.73824348       1.27932718
      11.80000000      40.82965408      45.65213846      36.73551305       1.27923210
      11.90000000      40.37051838      45.00000000      36.73278646       1.27913715
      12.00000000      39.85395366      45.67160666      36.72969108       1.27902936
      12.10000000      39.39464561      45.67160731      36.72697437       1.27893476
      12.20000000      38.93525722      45.00000000      36.72426393       1.27884037
      12.30000000      38.41840645      45.69227356      36.72118893       1.27873329
      12.40000000      37.95884599      45.00000000      36.71849377       1.27863944
      12.50000000      37.44180095      45.00000000      36.71543769       1.27853302
      12.60000000      36.98206785      45.71425263      36.71276103       1.27843981
      12.70000000      36.46482889      45.00000000      36.70972791       1.27833419
      12.80000000      35.94748659      45.00000000      36.70670820       1.27822904
      12.90000000      35.48749133      45.73767302      36.70406730       1.27813707
      13.00000000      34.96995615      45.00000000      36.70107678       1.27803293
      13.10000000      34.45231799      44.23731950      36.69810287       1.27792937
      13.20000000      33.93457833      45.76268129      36.69514719       1.27782645
      13.30000000      33.41673753      45.00000000      36.69221089       1.27772420
      13.40000000      32.89879487      44.21055632      36.68929469       1.27762265
      13.50000000      32.38075234      45.00000000      36.68640033       1.27752186
      13.60000000      31.80507588      45.81815249      36.68317820       1.27740966
      13.70000000      31.28682199      45.00000000      36.68033294       1.27731058
      13.80000000      30.71091120      45.00000000      36.67716797       1.27720036
      13.90000000      30.19244790      45.84902882      36.67437674       1.27710316
      14.00000000      29.61630593      45.00000000      36.67127467       1.27699514
      14.10000000      29.04004250      44.11767400      36.66820762       1.27688834
      14.20000000      28.46366010      45.00000000      36.66517762       1.27678283
      14.30000000      27.88715849      44.08165873      36.66218580       1.27667864
      14.40000000      27.31054027      45.00000000      36.65923418       1.27657586
      14.50000000      26.67616003      44.04257828      36.65600426       1.27646338
      14.60000000      26.04164048      45.00000000      36.65282650       1.27635273
      14.70000000      25.46465402      45.99997592      36.65001271       1.27625474
      14.80000000      24.77218858      45.00000000      36.64663485       1.27613712
      14.90000000      24.13726042      46.04648880      36.64362505       1.27603231
      15.00000000      23.50220124      45.00000000      36.64067550       1.27592959
      15.10000000      22.80928858      43.90246058      36.63749938       1.27581899
      15.20000000      22.11622433      45.00000000      36.63439947       1.27571105
      15.30000000      21.36526001      45.00000000      36.63110293       1.27559625
      15.40000000      20.67188836      46.21619636      36.62816924       1.27549409
      15.50000000      19.92059882      45.00000000      36.62505842       1.27538576
      15.60000000      19.11135521      45.00000000      36.62179590       1.27527215
      15.70000000      18.30192742      46.36361870      36.61865379       1.27516274
      15.80000000      17.43450381      45.00000000      36.61540136       1.27504948
      15.90000000      16.56688312      45.00000000      36.61229535       1.27494132
      16.00000000      15.64122786      45.00000000      36.60912599       1.27483095
      16.10000000      14.65750723      43.33334739      36.60593035       1.27471967
      16.20000000      13.61569325      43.20001315      36.60274928       1.27460890
      16.30000000      12.51576054      46.95650963      36.59962738       1.27450019
      16.40000000      11.29978571      47.14284629      36.59645321       1.27438965
      16.50000000       9.90979637      45.00000000      36.59318832       1.27427596
      16.60000000       8.34570694      45.00000000      36.59001053       1.27416530
      16.70000000       6.43362087      45.00000000      36.58684316       1.27405500
      16.80000000       3.53586139      38.57143171      36.58357058       1.27394104
      16.90000000       0.00000000       0.00000000      36.58234456       1.27389835
      17.00000000       0.00000000       0.00000000      36.58269491       1.27391055
      17.10000000       0.00000000       0.00000000      36.58304524       1.27392275
      17.20000000       0.00000000       0.00000000      36.58339556       1.27393495
      17.30000000       0.00000000       0.00000000      36.58374586       1.27394715
      17.40000000       0.00000000       0.00000000      36.58409615       1.27395935
      17.50000000       0.00000000       0.00000000      36.58444642       1.27397154
      17.60000000       0.00000000       0.00000000      36.58479667       1.27398374
      17.70000000       0.00000000       0.00000000      36.58514691       1.27399594
      17.80000000       0.00000000       0.00000000      36.58549714       1.27400813
      17.90000000       0.00000000       0.00000000      36.58584735       1.27402033
      18.00000000       0.00000000       0.00000000      36.58619754       1.27403252
      18.10000000       0.00000000       0.00000000      36.58654772       1.27404472
      18.20000000       0.00000000       0.00000000      36.58689788       1.27405691
      18.30000000       0.00000000       0.00000000      36.58724803       1.27406910
      18.40000000       0.00000000       0.00000000      36.58759816       1.27408129
      18.50000000       0.00000000       0.00000000      36.58794827       1.27409349
      18.60000000       0.00000000       0.00000000      36.58829837       1.27410568
      18.70000000       0.00000000       0.00000000      36.58864845       1.27411787
      18.80000000       0.00000000       0.00000000      36.58899852       1.27413006
      18.90000000       0.00000000       0.00000000      36.58934858       1.27414225
      19.00000000       0.00000000       0.00000000      36.58969861       1.27415444
      19.10000000       0.00000000       0.00000000      36.59004863       1.27416663
      19.20000000       0.00000000       0.00000000      36.59039864       1.27417882
      19.30000000       0.00000000       0.00000000      36.59074863       1.27419100
      19.40000000       0.00000000       0.00000000      36.59109860       1.27420319
      19.50000000       0.00000000       0.00000000      36.59144856       1.27421538
      19.60000000       0.00000000       0.00000000      36.59179851       1.27422756
      19.70000000       0.00000000       0.00000000      36.59214843       1.27423975
      19.80000000       0.00000000       0.00000000      36.59249835       1.27425193
      19.90000000       0.00000000       0.00000000      36.59284824       1.27426412
      20.00000000       0.00000000       0.00000000      36.59319812       1.27427630
      20.10000000       0.00000000       0.00000000      36.59354799       1.27428848
      20.20000000       0.00000000       0.00000000      36.59389784       1.27430067
      20.30000000       0.00000000       0.00000000      36.59424767       1.27431285
      20.40000000       0.00000000       0.00000000      36.59459749       1.27432503
      20.50000000       0.00000000       0.00000000      36.59494730       1.27433721
      20.60000000       0.00000000       0.00000000      36.59529708       1.27434939
      20.70000000       0.00000000       0.00000000      36.59564686       1.27436157
      20.80000000       0.00000000       0.00000000      36.59599661       1.27437375
      20.90000000       0.00000000       0.00000000      36.59634636       1.27438593
      21.00000000       0.00000000       0.00000000      36.59669608       1.27439811
      21.10000000       0.00000000       0.00000000      36.59704579       1.27441029
      21.20000000       0.00000000       0.00000000      36.59739549       1.27442247
      21.30000000       0.00000000       0.00000000      36.59774517       1.27443464
      21.40000000       0.00000000       0.00000000      36.59809483       1.27444682
      21.50000000       0.00000000       0.00000000      36.59844448       1.27445899
      21.60000000       0.00000000       0.00000000      36.59879412       1.27447117
      21.70000000       0.00000000       0.00000000      36.59914373       1.27448334
      21.80000000       0.00000000       0.00000000      36.59949334       1.27449552
      21.90000000       0.00000000       0.00000000      36.59984292       1.27450769
      22.00000000       0.00000000       0.00000000      36.60019250       1.27451986
      22.10000000       0.00000000       0.00000000      36.60054205       1.27453204
      22.20000000       0.00000000       0.00000000      36.60089159       1.27454421
      22.30000000       0.00000000       0.00000000      36.60124112       1.27455638
      22.40000000       0.00000000       0.00000000      36.60159063       1.27456855
      22.50000000       0.00000000       0.00000000      36.60194013       1.27458072
      22.60000000       0.00000000       0.00000000      36.60228961       1.27459289
      22.70000000       0.00000000       0.00000000      36.60263907       1.27460506
      22.80000000       0.00000000       0.00000000      36.60298852       1.27461723
      22.90000000       0.00000000       0.00000000      36.60333795       1.27462940
      23.00000000       0.00000000       0.00000000      36.60368737       1.27464157
      23.10000000       0.00000000       0.00000000      36.60403677       1.27465373
      23.20000000       0.00000000       0.00000000      36.60438616       1.27466590
      23.30000000       0.00000000       0.00000000      36.60473553       1.27467807
      23.40000000       0.00000000       0.00000000      36.60508489       1.27469023
      23.50000000       0.00000000       0.00000000      36.60543423       1.27470240
      23.60000000       0.00000000       0.00000000      36.60578356       1.27471456
      23.70000000       0.00000000       0.00000000      36.60613287       1.27472672
      23.80000000       0.00000000       0.00000000      36.60648217       1.27473889
      23.90000000       0.00000000       0.00000000      36.60683145       1.27475105
      24.00000000       0.00000000       0.00000000      36.60718071       1.27476321
      24.10000000       0.00000000       0.00000000      36.60752996       1.27477538
      24.20000000       0.00000000       0.00000000      36.60787920       1.27478754
      24.30000000       0.00000000       0.00000000      36.60822842       1.27479970
      24.40000000       0.00000000       0.00000000      36.60857762       1.27481186
      24.50000000       0.00000000       0.00000000      36.60892681       1.27482402
      24.60000000       0.00000000       0.00000000      36.60927598       1.27483618
      24.70000000       0.00000000       0.00000000      36.60962514       1.27484834
      24.80000000       0.00000000       0.00000000      36.60997429       1.27486049
      24.90000000       0.00000000       0.00000000      36.61032342       1.27487265
      25.00000000       0.00000000       0.00000000      36.61067253       1.27488481
      25.10000000       0.00000000       0.00000000      36.61102163       1.27489696
      25.20000000       0.00000000       0.00000000      36.61137071       1.27490912
      25.30000000       0.00000000       0.00000000      36.61171978       1.27492128
      25.40000000       0.00000000       0.00000000      36.61206883       1.27493343
      25.50000000       0.00000000       0.00000000      36.61241787       1.27494559
      25.60000000       0.00000000       0.00000000      36.61276689       1.27495774
      25.70000000       0.00000000       0.00000000      36.61311589       1.27496989
      25.80000000       0.00000000       0.00000000      36.61346489       1.27498205
      25.90000000       0.00000000       0.00000000      36.61381386       1.27499420
      26.00000000       0.00000000       0.00000000      36.61416282       1.27500635
      26.10000000       0.00000000       0.00000000      36.61451177       1.27501850
      26.20000000       0.00000000       0.00000000      36.61486070       1.27503065
      26.30000000       0.00000000       0.00000000      36.61520962       1.27504280
      26.40000000       0.00000000       0.00000000      36.61555852       1.27505495
      26.50000000       0.00000000       0.00000000      36.61590741       1.27506710
      26.60000000       0.00000000       0.00000000      36.61625628       1.27507925
      26.70000000       0.00000000       0.00000000      36.61660513       1.27509140
      26.80000000       0.00000000       0.00000000      36.61695397       1.27510355
      26.90000000       0.00000000       0.00000000      36.61730280       1.27511569
      27.00000000       0.00000000       0.00000000      36.61765161       1.27512784
      27.10000000       0.00000000       0.00000000      36.61800040       1.27513999
      27.20000000       0.00000000       0.00000000      36.61834918       1.27515213
      27.30000000       0.00000000       0.00000000      36.61869795       1.27516428
      27.40000000       0.00000000       0.00000000      36.61904670       1.27517642
      27.50000000       0.00000000       0.00000000      36.61939544       1.27518856
      27.60000000       0.00000000       0.00000000      36.61974416       1.27520071
      27.70000000       0.00000000       0.00000000      36.62009286       1.27521285
      27.80000000       0.00000000       0.00000000      36.62044155       1.27522499
      27.90000000       0.00000000       0.00000000      36.62079023       1.27523713
      28.00000000       0.00000000       0.00000000      36.62113889       1.27524928
      28.10000000       0.00000000       0.00000000      36.62148753       1.27526142
      28.20000000       0.00000000       0.00000000      36.62183616       1.27527356
      28.30000000       0.00000000       0.00000000      36.62218478       1.27528570
      28.40000000       0.00000000       0.00000000      36.62253338       1.27529784
      28.50000000       0.00000000       0.00000000      36.62288196       1.27530997
      28.60000000       0.00000000       0.00000000      36.62323053       1.27532211
      28.70000000       0.00000000       0.00000000      36.62357909       1.27533425
      28.80000000       0.00000000       0.00000000      36.62392763       1.27534639
      28.90000000       0.00000000       0.00000000      36.62427616       1.27535852
      29.00000000       0.00000000       0.00000000      36.62462467       1.27537066
      29.10000000       0.00000000       0.00000000      36.62497316       1.27538280
      29.20000000       0.00000000       0.00000000      36.62532164       1.27539493
      29.30000000       0.00000000       0.00000000      36.62567011       1.27540707
      29.40000000       0.00000000       0.00000000      36.62601856       1.27541920
      29.50000000       0.00000000       0.00000000      36.62636700       1.27543133
      29.60000000       0.00000000       0.00000000      36.62671542       1.27544347
      29.70000000       0.00000000       0.00000000      36.62706382       1.27545560
      29.80000000       0.00000000       0.00000000      36.62741221       1.27546773
      29.90000000       0.00000000       0.00000000      36.62776059       1.27547986
      30.00000000       0.00000000       0.00000000      36.62810895       1.27549199
      30.10000000       0.00000000       0.00000000      36.62845730       1.27550412
      30.20000000       0.00000000       0.00000000      36.62880563       1.27551625
      30.30000000       0.00000000       0.00000000      36.62915395       1.27552838
      30.40000000       0.00000000       0.00000000      36.62950225       1.27554051
      30.50000000       0.00000000       0.00000000      36.62985054       1.27555264
      30.60000000       0.00000000       0.00000000      36.63019881       1.27556477
      30.70000000       0.00000000       0.00000000      36.63054707       1.27557689
      30.80000000       0.00000000       0.00000000      36.63089531       1.27558902
      30.90000000       0.00000000       0.00000000      36.63124354       1.27560115
      31.00000000       0.00000000       0.00000000      36.63159175       1.27561327
      31.10000000       0.00000000       0.00000000      36.63193995       1.27562540
      31.20000000       0.00000000       0.00000000      36.63228814       1.27563752
      31.30000000       0.00000000       0.00000000      36.63263630       1.27564965
      31.40000000       0.00000000       0.00000000      36.63298446       1.27566177
      31.50000000       0.00000000       0.00000000      36.63333260       1.27567389
      31.60000000       0.00000000       0.00000000      36.63368072       1.27568602
      31.70000000       0.00000000       0.00000000      36.63402883       1.27569814
      31.80000000       0.00000000       0.00000000      36.63437693       1.27571026
      31.90000000       0.00000000       0.00000000      36.63472501       1.27572238
      32.00000000       0.00000000       0.00000000      36.63507307       1.27573450
      32.10000000       0.00000000       0.00000000      36.63542113       1.27574662
      32.20000000       0.00000000       0.00000000      36.63576916       1.27575874
      32.30000000       0.00000000       0.00000000      36.63611718       1.27577086
      32.40000000       0.00000000       0.00000000      36.63646519       1.27578298
      32.50000000       0.00000000       0.00000000      36.63681318       1.27579510
      32.60000000       0.00000000       0.00000000      36.63716116       1.27580722
      32.70000000       0.00000000       0.00000000      36.63750912       1.27581933
      32.80000000       0.00000000       0.00000000      36.63785707       1.27583145
      32.90000000       0.00000000       0.00000000      36.63820501       1.27584357
      33.00000000       0.00000000       0.00000000      36.63855292       1.27585568
      33.10000000       0.00000000       0.00000000      36.63890083       1.27586780
      33.20000000       0.00000000       0.00000000      36.63924872       1.27587991
      33.30000000       0.00000000       0.00000000      36.63959659       1.27589202
      33.40000000       0.00000000       0.00000000      36.63994445       1.27590414
      33.50000000       0.00000000       0.00000000      36.64029230       1.27591625
      33.60000000       0.00000000       0.00000000      36.64064013       1.27592836
      33.70000000       0.00000000       0.00000000      36.64098795       1.27594047
      33.80000000       0.00000000       0.00000000      36.64133575       1.27595259
      33.90000000       0.00000000       0.00000000      36.64168354       1.27596470
      34.00000000       0.00000000       0.00000000      36.64203131       1.27597681
      34.10000000       0.00000000       0.00000000      36.64237907       1.27598892
      34.20000000       0.00000000       0.00000000      36.64272681       1.27600103
      34.30000000       0.00000000       0.00000000      36.64307454       1.27601314
      34.40000000       0.00000000       0.00000000      36.64342225       1.27602524
      34.50000000       0.00000000       0.00000000      36.64376995       1.27603735
      34.60000000       0.00000000       0.00000000      36.64411764       1.27604946
      34.70000000       0.00000000       0.00000000      36.64446531       1.27606157
      34.80000000       0.00000000       0.00000000      36.64481296       1.27607367
      34.90000000       0.00000000       0.00000000      36.64516061       1.27608578
      35.00000000       0.00000000       0.00000000      36.64550823       1.27609788
      35.10000000       0.00000000       0.00000000      36.64585585       1.27610999
      35.20000000       0.00000000       0.00000000      36.64620344       1.27612209
      35.30000000       0.00000000       0.00000000      36.64655103       1.27613420
      35.40000000       0.00000000       0.00000000      36.64689860       1.27614630
      35.50000000       0.00000000       0.00000000      36.64724615       1.27615840
      35.60000000       0.00000000       0.00000000      36.64759369       1.27617051
      35.70000000       0.00000000       0.00000000      36.64794122       1.27618261
      35.80000000       0.00000000       0.00000000      36.64828873       1.27619471
      35.90000000       0.00000000       0.00000000      36.64863622       1.27620681
      36.00000000       0.00000000       0.00000000      36.64898371       1.27621891
      36.10000000       0.00000000       0.00000000      36.64933117       1.27623101
      36.20000000       0.00000000       0.00000000      36.64967863       1.27624311
      36.30000000       0.00000000       0.00000000      36.65002607       1.27625521
      36.40000000       0.00000000       0.00000000      36.65037349       1.27626731
      36.50000000       0.00000000       0.00000000      36.65072090       1.27627940
      36.60000000       0.00000000       0.00000000      36.65106830       1.27629150
      36.70000000       0.00000000       0.00000000      36.65141568       1.27630360
      36.80000000       0.00000000       0.00000000      36.65176305       1.27631569
      36.90000000       0.00000000       0.00000000      36.65211040       1.27632779
      37.00000000       0.00000000       0.00000000      36.65245774       1.27633988
      37.10000000       0.00000000       0.00000000      36.65280506       1.27635198
      37.20000000       0.00000000       0.00000000      36.65315237       1.27636407
      37.30000000       0.00000000       0.00000000      36.65349966       1.27637617
      37.40000000       0.00000000       0.00000000      36.65384694       1.27638826
      37.50000000       0.00000000       0.00000000      36.65419421       1.27640035
      37.60000000       0.00000000       0.00000000      36.65454146       1.27641245
      37.70000000       0.00000000       0.00000000      36.65488870       1.27642454
      37.80000000       0.00000000       0.00000000      36.65523592       1.27643663
      37.90000000       0.00000000       0.00000000      36.65558313       1.27644872
      38.00000000       0.00000000       0.00000000      36.65593033       1.27646081
      38.10000000       0.00000000       0.00000000      36.65627751       1.27647290
      38.20000000       0.00000000       0.00000000      36.65662467       1.27648499
      38.30000000       0.00000000       0.00000000      36.65697182       1.27649708
      38.40000000       0.00000000       0.00000000      36.65731896       1.27650917
      38.50000000       0.00000000       0.00000000      36.65766608       1.27652125
      38.60000000       0.00000000       0.00000000      36.65801319       1.27653334
      38.70000000       0.00000000       0.00000000      36.65836029       1.27654543
      38.80000000       0.00000000       0.00000000      36.65870737       1.27655751
      38.90000000       0.00000000       0.00000000      36.65905443       1.27656960
      39.00000000       0.00000000       0.00000000      36.65940149       1.27658169
      39.10000000       0.00000000       0.00000000      36.65974852       1.27659377
      39.20000000       0.00000000       0.00000000      36.66009555       1.27660585
      39.30000000       0.00000000       0.00000000      36.66044256       1.27661794
      39.40000000       0.00000000       0.00000000      36.66078955       1.27663002
      39.50000000       0.00000000       0.00000000      36.66113653       1.27664210
      39.60000000       0.00000000       0.00000000      36.66148350       1.27665419
      39.70000000       0.00000000       0.00000000      36.66183045       1.27666627
      39.80000000       0.00000000       0.00000000      36.66217739       1.27667835
      39.90000000       0.00000000       0.00000000      36.66252431       1.27669043
      40.00000000       0.00000000       0.00000000      36.66287122       1.27670251
