 # applied field (T), theta (degree), phi (degree), abs for RE 3-4
     0.00000   180.00000   360.00000     0.05045   180.00000   360.00000     0.05045
     0.10000   178.25670   180.00000     0.05047   178.85207   180.00000     0.05046
     0.20000   176.80174   180.00000     0.05051   177.90602   180.00000     0.05048
     0.30000   175.06457   180.00000     0.05060   176.75997   180.00000     0.05052
     0.40000   173.33407   180.00000     0.05072   175.61598   180.00000     0.05057
     0.50000   171.61251   180.00000     0.05087   174.47477   180.00000     0.05064
     0.60000   170.18242   180.00000     0.05102   173.53634   180.00000     0.05071
     0.70000   168.48287   180.00000     0.05124   172.40200   180.00000     0.05080
     0.80000   166.79820   180.00000     0.05149   171.27239   180.00000     0.05091
     0.90000   165.13029   180.00000     0.05177   170.14817   180.00000     0.05104
     1.00000   163.48089   180.00000     0.05209   169.02997   180.00000     0.05118
     1.10000   162.11782   180.00000     0.05238   168.11293   180.00000     0.05131
     1.20000   160.50641   180.00000     0.05275   167.00731   180.00000     0.05148
     1.30000   158.91765   180.00000     0.05315   165.90939   180.00000     0.05167
     1.40000   157.35273   180.00000     0.05358   164.81971   180.00000     0.05186
     1.50000   156.06374   180.00000     0.05396   163.92780   180.00000     0.05204
     1.60000   154.54508   180.00000     0.05445   162.85447   180.00000     0.05226
     1.70000   153.05276   180.00000     0.05496   161.79076   180.00000     0.05250
     1.80000   151.58740   180.00000     0.05549   160.73709   180.00000     0.05275
     1.90000   150.38337   180.00000     0.05595   159.87619   180.00000     0.05297
     2.00000   148.96858   180.00000     0.05653   158.84185   180.00000     0.05324
     2.10000   147.58175   180.00000     0.05713   157.81860   180.00000     0.05353
     2.20000   146.22303   180.00000     0.05775   156.80673   180.00000     0.05383
     2.30000   144.89245   180.00000     0.05839   155.80653   180.00000     0.05414
     2.40000   143.80126   180.00000     0.05894   154.99089   180.00000     0.05440
     2.50000   142.52202   180.00000     0.05962   154.01260   180.00000     0.05474
     2.60000   141.27053   180.00000     0.06031   153.04659   180.00000     0.05508
     2.70000   140.04648   180.00000     0.06102   152.09304   180.00000     0.05543
     2.80000   138.84954   180.00000     0.06174   151.15208   180.00000     0.05580
     2.90000   137.67932   180.00000     0.06248   150.22381   180.00000     0.05617
     3.00000   136.72041   180.00000     0.06310   149.46822   180.00000     0.05649
     3.10000   135.59797   180.00000     0.06387   148.56335   180.00000     0.05688
     3.20000   134.50090   180.00000     0.06464   147.67136   180.00000     0.05728
     3.30000   133.42865   180.00000     0.06543   146.79228   180.00000     0.05769
     3.40000   132.38068   180.00000     0.06622   145.92612   180.00000     0.05811
     3.50000   131.35640   180.00000     0.06702   145.07285   180.00000     0.05854
     3.60000   130.35524   180.00000     0.06784   144.23244   180.00000     0.05897
     3.70000   129.37660   180.00000     0.06865   143.40484   180.00000     0.05941
     3.80000   128.41988   180.00000     0.06948   142.58998   180.00000     0.05986
     3.90000   127.48449   180.00000     0.07031   141.78780   180.00000     0.06032
     4.00000   126.71705   180.00000     0.07101   141.13613   180.00000     0.06070
     4.10000   125.81920   180.00000     0.07185   140.35682   180.00000     0.06117
     4.20000   124.94099   180.00000     0.07269   139.58989   180.00000     0.06164
     4.30000   124.08184   180.00000     0.07354   138.83521   180.00000     0.06212
     4.40000   123.24117   180.00000     0.07439   138.09265   180.00000     0.06260
     4.50000   122.41843   180.00000     0.07525   137.36208   180.00000     0.06309
     4.60000   121.61306   180.00000     0.07610   136.64334   180.00000     0.06359
     4.70000   120.82452   180.00000     0.07696   135.93629   180.00000     0.06409
     4.80000   120.05227   180.00000     0.07781   135.24076   180.00000     0.06459
     4.90000   119.29582   180.00000     0.07867   134.55660   180.00000     0.06510
     5.00000   118.43639   180.00000     0.07967   133.76627   180.00000     0.06571
     5.10000   117.71244   180.00000     0.08053   133.10625   180.00000     0.06622
     5.20000   117.00274   180.00000     0.08138   132.45705   180.00000     0.06674
     5.30000   116.30683   180.00000     0.08223   131.81851   180.00000     0.06726
     5.40000   115.62427   180.00000     0.08308   131.19044   180.00000     0.06779
     5.50000   114.95463   180.00000     0.08392   130.57268   180.00000     0.06832
     5.60000   114.29749   180.00000     0.08476   129.96505   180.00000     0.06885
     5.70000   113.65246   180.00000     0.08560   129.36736   180.00000     0.06938
     5.80000   112.91856   180.00000     0.08657   128.67678   180.00000     0.07001
     5.90000   112.29845   180.00000     0.08740   128.10012   180.00000     0.07054
     6.00000   111.68927   180.00000     0.08822   127.53285   180.00000     0.07108
     6.10000   111.09066   180.00000     0.08904   126.97480   180.00000     0.07162
     6.20000   110.50231   180.00000     0.08985   126.42580   180.00000     0.07216
     6.30000   109.83230   180.00000     0.09080   125.79124   180.00000     0.07280
     6.40000   109.26507   180.00000     0.09159   125.26132   180.00000     0.07334
     6.50000   108.70711   180.00000     0.09238   124.73992   180.00000     0.07388
     6.60000   108.07140   180.00000     0.09330   124.13710   180.00000     0.07452
     6.70000   107.53258   180.00000     0.09407   123.63364   180.00000     0.07507
     6.80000   107.00217   180.00000     0.09484   123.13818   180.00000     0.07561
     6.90000   106.39757   180.00000     0.09573   122.56520   180.00000     0.07625
     7.00000   105.88453   180.00000     0.09648   122.08660   180.00000     0.07679
     7.10000   105.29957   180.00000     0.09735   121.53300   180.00000     0.07743
     7.20000   104.80284   180.00000     0.09807   121.07055   180.00000     0.07797
     7.30000   104.23630   180.00000     0.09892   120.53552   180.00000     0.07861
     7.40000   103.75488   180.00000     0.09963   120.08853   180.00000     0.07915
     7.50000   103.20567   180.00000     0.10045   119.57128   180.00000     0.07978
     7.60000   102.73865   180.00000     0.10113   119.13911   180.00000     0.08032
     7.70000   102.20576   180.00000     0.10193   118.63888   180.00000     0.08095
     7.80000   101.68126   180.00000     0.10271   118.14756   180.00000     0.08158
     7.90000   101.23481   180.00000     0.10336   117.73699   180.00000     0.08211
     8.00000   100.72525   180.00000     0.10411   117.26160   180.00000     0.08273
     8.10000   100.22339   180.00000     0.10485   116.79455   180.00000     0.08336
     8.20000    99.79580   180.00000     0.10546   116.40421   180.00000     0.08388
     8.30000    99.30767   180.00000     0.10617   115.95208   180.00000     0.08450
     8.40000    98.82665   180.00000     0.10686   115.50776   180.00000     0.08511
     8.50000    98.35254   180.00000     0.10754   115.07107   180.00000     0.08573
     8.60000    97.88517   180.00000     0.10820   114.64183   180.00000     0.08633
     8.70000    97.42437   180.00000     0.10884   114.21990   180.00000     0.08694
     8.80000    96.96998   180.00000     0.10946   113.80510   180.00000     0.08754
     8.90000    96.52185   180.00000     0.11007   113.39728   180.00000     0.08814
     9.00000    96.07984   180.00000     0.11066   112.99628   180.00000     0.08873
     9.10000    95.64381   180.00000     0.11123   112.60197   180.00000     0.08932
     9.20000    95.21365   180.00000     0.11178   112.21419   180.00000     0.08991
     9.30000    94.78923   180.00000     0.11232   111.83282   180.00000     0.09049
     9.40000    94.37045   180.00000     0.11283   111.45770   180.00000     0.09107
     9.50000    93.90197   180.00000     0.11342   111.03352   180.00000     0.09173
     9.60000    93.49494   180.00000     0.11389   110.67142   180.00000     0.09230
     9.70000    93.09327   180.00000     0.11435   110.31518   180.00000     0.09286
     9.80000    92.64397   180.00000     0.11486   109.91221   180.00000     0.09351
     9.90000    92.25351   180.00000     0.11527   109.56816   180.00000     0.09406
    10.00000    91.81682   180.00000     0.11574   109.17889   180.00000     0.09469
    10.10000    91.43727   180.00000     0.11611   108.84652   180.00000     0.09524
    10.20000    91.01290   180.00000     0.11653   108.47037   180.00000     0.09586
    10.30000    90.64405   180.00000     0.11686   108.14918   180.00000     0.09639
    10.40000    90.23177   180.00000     0.11722   107.78561   180.00000     0.09700
    10.50000    89.82586   180.00000     0.11757   107.42855   180.00000     0.09760
    10.60000    89.42629   180.00000     0.11788   107.07786   180.00000     0.09820
    10.70000    89.03303   180.00000     0.11817   106.73340   180.00000     0.09879
    10.80000    88.64608   180.00000     0.11844   106.39504   180.00000     0.09937
    10.90000    88.26541   180.00000     0.11867   106.06265   180.00000     0.09995
    11.00000    87.89105   180.00000     0.11888   105.73610   180.00000     0.10051
    11.10000    87.52301   180.00000     0.11907   105.41526   180.00000     0.10107
    11.20000    87.11913   180.00000     0.11926   105.05892   180.00000     0.10170
    11.30000    86.76457   180.00000     0.11939   104.74987   180.00000     0.10225
    11.40000    86.37588   180.00000     0.11952   104.40657   180.00000     0.10286
    11.50000    86.03500   180.00000     0.11960   104.10880   180.00000     0.10339
    11.60000    85.66175   180.00000     0.11967   103.77797   180.00000     0.10398
    11.70000    85.29679   180.00000     0.11971   103.45354   180.00000     0.10457
    11.80000    84.94023   180.00000     0.11972   103.13537   180.00000     0.10514
    11.90000    84.59219   180.00000     0.11969   102.82333   180.00000     0.10571
    12.00000    84.25280   180.00000     0.11964   102.51727   180.00000     0.10626
    12.10000    83.92221   180.00000     0.11955   102.21706   180.00000     0.10681
    12.20000    83.60057   180.00000     0.11943   101.92258   180.00000     0.10734
    12.30000    83.25569   180.00000     0.11929   101.60039   180.00000     0.10793
    12.40000    82.92218   180.00000     0.11911   101.28501   180.00000     0.10851
    12.50000    82.63048   180.00000     0.11890   101.00817   180.00000     0.10901
    12.60000    82.31936   180.00000     0.11865   100.70524   180.00000     0.10957
    12.70000    82.02038   180.00000     0.11837   100.40864   180.00000     0.11011
    12.80000    81.70710   180.00000     0.11804   100.08827   180.00000     0.11070
    12.90000    81.43451   180.00000     0.11769    99.80451   180.00000     0.11122
    13.00000    81.15081   180.00000     0.11729    99.49796   180.00000     0.11178
    13.10000    80.88315   180.00000     0.11685    99.19838   180.00000     0.11233
    13.20000    80.63197   180.00000     0.11638    98.90558   180.00000     0.11286
    13.30000    80.39768   180.00000     0.11588    98.61937   180.00000     0.11338
    13.40000    80.16240   180.00000     0.11531    98.31350   180.00000     0.11393
    13.50000    79.94809   180.00000     0.11472    98.01509   180.00000     0.11447
    13.60000    79.75528   180.00000     0.11408    97.72391   180.00000     0.11499
    13.70000    79.58455   180.00000     0.11342    97.43973   180.00000     0.11549
    13.80000    79.42514   180.00000     0.11269    97.13876   180.00000     0.11602
    13.90000    79.29270   180.00000     0.11193    96.84553   180.00000     0.11653
    14.00000    79.18073   180.00000     0.11110    96.53745   180.00000     0.11706
    14.10000    79.10132   180.00000     0.11024    96.23775   180.00000     0.11757
    14.20000    79.05272   180.00000     0.10931    95.92503   180.00000     0.11810
    14.30000    79.04297   180.00000     0.10835    95.62118   180.00000     0.11860
    14.40000    79.07554   180.00000     0.10733    95.30598   180.00000     0.11910
    14.50000    79.15941   180.00000     0.10625    94.98080   180.00000     0.11962
    14.60000    79.29564   180.00000     0.10516    94.66545   180.00000     0.12010
    14.70000    79.50853   180.00000     0.10396    94.32346   180.00000     0.12060
    14.80000    79.80354   180.00000     0.10271    93.97503   180.00000     0.12110
    14.90000    80.21133   180.00000     0.10138    93.60441   180.00000     0.12160
    15.00000    80.75581   180.00000     0.09999    93.21408   180.00000     0.12209
    15.10000    81.49020   180.00000     0.09852    92.79073   180.00000     0.12259
    15.20000    82.48719   180.00000     0.09698    92.32283   180.00000     0.12307
    15.30000    83.91669   180.00000     0.09537    91.77175   180.00000     0.12354
    15.40000    86.41390   180.00000     0.09363    90.98105   180.00000     0.12402
    15.50000    90.00000   180.00000     0.09273    90.00000   180.00000     0.12417
    15.60000    90.00000   180.00000     0.09263    90.00000   180.00000     0.12405
    15.70000    90.00000   180.00000     0.09252    90.00000   180.00000     0.12394
    15.80000    90.00000   180.00000     0.09241    90.00000   180.00000     0.12382
    15.90000    90.00000   180.00000     0.09230    90.00000   180.00000     0.12370
    16.00000    90.00000   180.00000     0.09219    90.00000   180.00000     0.12358
    16.10000    90.00000   180.00000     0.09209    90.00000   180.00000     0.12346
    16.20000    90.00000   180.00000     0.09198    90.00000   180.00000     0.12334
    16.30000    90.00000   180.00000     0.09187    90.00000   180.00000     0.12322
    16.40000    90.00000   180.00000     0.09176    90.00000   180.00000     0.12310
    16.50000    90.00000   180.00000     0.09165    90.00000   180.00000     0.12298
    16.60000    90.00000   180.00000     0.09155    90.00000   180.00000     0.12286
    16.70000    90.00000   180.00000     0.09144    90.00000   180.00000     0.12275
    16.80000    90.00000   180.00000     0.09133    90.00000   180.00000     0.12263
    16.90000    90.00000   180.00000     0.09122    90.00000   180.00000     0.12251
    17.00000    90.00000   180.00000     0.09111    90.00000   180.00000     0.12239
    17.10000    90.00000   180.00000     0.09101    90.00000   180.00000     0.12227
    17.20000    90.00000   180.00000     0.09090    90.00000   180.00000     0.12215
    17.30000    90.00000   180.00000     0.09079    90.00000   180.00000     0.12203
    17.40000    90.00000   180.00000     0.09068    90.00000   180.00000     0.12191
    17.50000    90.00000   180.00000     0.09058    90.00000   180.00000     0.12179
    17.60000    90.00000   180.00000     0.09047    90.00000   180.00000     0.12167
    17.70000    90.00000   180.00000     0.09036    90.00000   180.00000     0.12156
    17.80000    90.00000   180.00000     0.09025    90.00000   180.00000     0.12144
    17.90000    90.00000   180.00000     0.09014    90.00000   180.00000     0.12132
    18.00000    90.00000   180.00000     0.09004    90.00000   180.00000     0.12120
    18.10000    90.00000   180.00000     0.08993    90.00000   180.00000     0.12108
    18.20000    90.00000   180.00000     0.08982    90.00000   180.00000     0.12096
    18.30000    90.00000   180.00000     0.08971    90.00000   180.00000     0.12084
    18.40000    90.00000   180.00000     0.08960    90.00000   180.00000     0.12072
    18.50000    90.00000   180.00000     0.08950    90.00000   180.00000     0.12060
    18.60000    90.00000   180.00000     0.08939    90.00000   180.00000     0.12049
    18.70000    90.00000   180.00000     0.08928    90.00000   180.00000     0.12037
    18.80000    90.00000   180.00000     0.08917    90.00000   180.00000     0.12025
    18.90000    90.00000   180.00000     0.08907    90.00000   180.00000     0.12013
    19.00000    90.00000   180.00000     0.08896    90.00000   180.00000     0.12001
    19.10000    90.00000   180.00000     0.08885    90.00000   180.00000     0.11989
    19.20000    90.00000   180.00000     0.08874    90.00000   180.00000     0.11977
    19.30000    90.00000   180.00000     0.08863    90.00000   180.00000     0.11965
    19.40000    90.00000   180.00000     0.08853    90.00000   180.00000     0.11954
    19.50000    90.00000   180.00000     0.08842    90.00000   180.00000     0.11942
    19.60000    90.00000   180.00000     0.08831    90.00000   180.00000     0.11930
    19.70000    90.00000   180.00000     0.08820    90.00000   180.00000     0.11918
    19.80000    90.00000   180.00000     0.08809    90.00000   180.00000     0.11906
    19.90000    90.00000   180.00000     0.08799    90.00000   180.00000     0.11894
    20.00000    90.00000   180.00000     0.08788    90.00000   180.00000     0.11882
    20.10000    90.00000   180.00000     0.08777    90.00000   180.00000     0.11871
    20.20000    90.00000   180.00000     0.08766    90.00000   180.00000     0.11859
    20.30000    90.00000   180.00000     0.08756    90.00000   180.00000     0.11847
    20.40000    90.00000   180.00000     0.08745    90.00000   180.00000     0.11835
    20.50000    90.00000   180.00000     0.08734    90.00000   180.00000     0.11823
    20.60000    90.00000   180.00000     0.08723    90.00000   180.00000     0.11811
    20.70000    90.00000   180.00000     0.08712    90.00000   180.00000     0.11799
    20.80000    90.00000   180.00000     0.08702    90.00000   180.00000     0.11788
    20.90000    90.00000   180.00000     0.08691    90.00000   180.00000     0.11776
    21.00000    90.00000   180.00000     0.08680    90.00000   180.00000     0.11764
    21.10000    90.00000   180.00000     0.08669    90.00000   180.00000     0.11752
    21.20000    90.00000   180.00000     0.08659    90.00000   180.00000     0.11740
    21.30000    90.00000   180.00000     0.08648    90.00000   180.00000     0.11728
    21.40000    90.00000   180.00000     0.08637    90.00000   180.00000     0.11716
    21.50000    90.00000   180.00000     0.08626    90.00000   180.00000     0.11705
    21.60000    90.00000   180.00000     0.08616    90.00000   180.00000     0.11693
    21.70000    90.00000   180.00000     0.08605    90.00000   180.00000     0.11681
    21.80000    90.00000   180.00000     0.08594    90.00000   180.00000     0.11669
    21.90000    90.00000   180.00000     0.08583    90.00000   180.00000     0.11657
    22.00000    90.00000   180.00000     0.08572    90.00000   180.00000     0.11645
    22.10000    90.00000   180.00000     0.08562    90.00000   180.00000     0.11633
    22.20000    90.00000   180.00000     0.08551    90.00000   180.00000     0.11622
    22.30000    90.00000   180.00000     0.08540    90.00000   180.00000     0.11610
    22.40000    90.00000   180.00000     0.08529    90.00000   180.00000     0.11598
    22.50000    90.00000   180.00000     0.08519    90.00000   180.00000     0.11586
    22.60000    90.00000   180.00000     0.08508    90.00000   180.00000     0.11574
    22.70000    90.00000   180.00000     0.08497    90.00000   180.00000     0.11562
    22.80000    90.00000   180.00000     0.08486    90.00000   180.00000     0.11551
    22.90000    90.00000   180.00000     0.08476    90.00000   180.00000     0.11539
    23.00000    90.00000   180.00000     0.08465    90.00000   180.00000     0.11527
    23.10000    90.00000   180.00000     0.08454    90.00000   180.00000     0.11515
    23.20000    90.00000   180.00000     0.08443    90.00000   180.00000     0.11503
    23.30000    90.00000   180.00000     0.08432    90.00000   180.00000     0.11491
    23.40000    90.00000   180.00000     0.08422    90.00000   180.00000     0.11480
    23.50000    90.00000   180.00000     0.08411    90.00000   180.00000     0.11468
    23.60000    90.00000   180.00000     0.08400    90.00000   180.00000     0.11456
    23.70000    90.00000   180.00000     0.08389    90.00000   180.00000     0.11444
    23.80000    90.00000   180.00000     0.08379    90.00000   180.00000     0.11432
    23.90000    90.00000   180.00000     0.08368    90.00000   180.00000     0.11420
    24.00000    90.00000   180.00000     0.08357    90.00000   180.00000     0.11409
    24.10000    90.00000   180.00000     0.08346    90.00000   180.00000     0.11397
    24.20000    90.00000   180.00000     0.08336    90.00000   180.00000     0.11385
    24.30000    90.00000   180.00000     0.08325    90.00000   180.00000     0.11373
    24.40000    90.00000   180.00000     0.08314    90.00000   180.00000     0.11361
    24.50000    90.00000   180.00000     0.08303    90.00000   180.00000     0.11350
    24.60000    90.00000   180.00000     0.08293    90.00000   180.00000     0.11338
    24.70000    90.00000   180.00000     0.08282    90.00000   180.00000     0.11326
    24.80000    90.00000   180.00000     0.08271    90.00000   180.00000     0.11314
    24.90000    90.00000   180.00000     0.08260    90.00000   180.00000     0.11302
    25.00000    90.00000   180.00000     0.08250    90.00000   180.00000     0.11290
    25.10000    90.00000   180.00000     0.08239    90.00000   180.00000     0.11279
    25.20000    90.00000   180.00000     0.08228    90.00000   180.00000     0.11267
    25.30000    90.00000   180.00000     0.08217    90.00000   180.00000     0.11255
    25.40000    90.00000   180.00000     0.08207    90.00000   180.00000     0.11243
    25.50000    90.00000   180.00000     0.08196    90.00000   180.00000     0.11231
    25.60000    90.00000   180.00000     0.08185    90.00000   180.00000     0.11220
    25.70000    90.00000   180.00000     0.08174    90.00000   180.00000     0.11208
    25.80000    90.00000   180.00000     0.08164    90.00000   180.00000     0.11196
    25.90000    90.00000   180.00000     0.08153    90.00000   180.00000     0.11184
    26.00000    90.00000   180.00000     0.08142    90.00000   180.00000     0.11172
    26.10000    90.00000   180.00000     0.08131    90.00000   180.00000     0.11161
    26.20000    90.00000   180.00000     0.08121    90.00000   180.00000     0.11149
    26.30000    90.00000   180.00000     0.08110    90.00000   180.00000     0.11137
    26.40000    90.00000   180.00000     0.08099    90.00000   180.00000     0.11125
    26.50000    90.00000   180.00000     0.08088    90.00000   180.00000     0.11113
    26.60000    90.00000   180.00000     0.08078    90.00000   180.00000     0.11102
    26.70000    90.00000   180.00000     0.08067    90.00000   180.00000     0.11090
    26.80000    90.00000   180.00000     0.08056    90.00000   180.00000     0.11078
    26.90000    90.00000   180.00000     0.08045    90.00000   180.00000     0.11066
    27.00000    90.00000   180.00000     0.08035    90.00000   180.00000     0.11054
    27.10000    90.00000   180.00000     0.08024    90.00000   180.00000     0.11043
    27.20000    90.00000   180.00000     0.08013    90.00000   180.00000     0.11031
    27.30000    90.00000   180.00000     0.08002    90.00000   180.00000     0.11019
    27.40000    90.00000   180.00000     0.07992    90.00000   180.00000     0.11007
    27.50000    90.00000   180.00000     0.07981    90.00000   180.00000     0.10995
    27.60000    90.00000   180.00000     0.07970    90.00000   180.00000     0.10984
    27.70000    90.00000   180.00000     0.07959    90.00000   180.00000     0.10972
    27.80000    90.00000   180.00000     0.07949    90.00000   180.00000     0.10960
    27.90000    90.00000   180.00000     0.07938    90.00000   180.00000     0.10948
    28.00000    90.00000   180.00000     0.07927    90.00000   180.00000     0.10936
    28.10000    90.00000   180.00000     0.07916    90.00000   180.00000     0.10925
    28.20000    90.00000   180.00000     0.07905    90.00000   180.00000     0.10913
    28.30000    90.00000   180.00000     0.07895    90.00000   180.00000     0.10901
    28.40000    90.00000   180.00000     0.07884    90.00000   180.00000     0.10889
    28.50000    90.00000   180.00000     0.07873    90.00000   180.00000     0.10878
    28.60000    90.00000   180.00000     0.07862    90.00000   180.00000     0.10866
    28.70000    90.00000   180.00000     0.07852    90.00000   180.00000     0.10854
    28.80000    90.00000   180.00000     0.07841    90.00000   180.00000     0.10842
    28.90000    90.00000   180.00000     0.07830    90.00000   180.00000     0.10830
    29.00000    90.00000   180.00000     0.07820    90.00000   180.00000     0.10819
    29.10000    90.00000   180.00000     0.07809    90.00000   180.00000     0.10807
    29.20000    90.00000   180.00000     0.07798    90.00000   180.00000     0.10795
    29.30000    90.00000   180.00000     0.07787    90.00000   180.00000     0.10783
    29.40000    90.00000   180.00000     0.07777    90.00000   180.00000     0.10772
    29.50000    90.00000   180.00000     0.07766    90.00000   180.00000     0.10760
    29.60000    90.00000   180.00000     0.07755    90.00000   180.00000     0.10748
    29.70000    90.00000   180.00000     0.07744    90.00000   180.00000     0.10736
    29.80000    90.00000   180.00000     0.07734    90.00000   180.00000     0.10725
    29.90000    90.00000   180.00000     0.07723    90.00000   180.00000     0.10713
    30.00000    90.00000   180.00000     0.07712    90.00000   180.00000     0.10701
    30.10000    90.00000   180.00000     0.07702    90.00000   180.00000     0.10689
    30.20000    90.00000   180.00000     0.07691    90.00000   180.00000     0.10678
    30.30000    90.00000   180.00000     0.07680    90.00000   180.00000     0.10666
    30.40000    90.00000   180.00000     0.07669    90.00000   180.00000     0.10654
    30.50000    90.00000   180.00000     0.07659    90.00000   180.00000     0.10642
    30.60000    90.00000   180.00000     0.07648    90.00000   180.00000     0.10630
    30.70000    90.00000   180.00000     0.07637    90.00000   180.00000     0.10619
    30.80000    90.00000   180.00000     0.07627    90.00000   180.00000     0.10607
    30.90000    90.00000   180.00000     0.07616    90.00000   180.00000     0.10595
    31.00000    90.00000   180.00000     0.07605    90.00000   180.00000     0.10583
    31.10000    90.00000   180.00000     0.07594    90.00000   180.00000     0.10572
    31.20000    90.00000   180.00000     0.07584    90.00000   180.00000     0.10560
    31.30000    90.00000   180.00000     0.07573    90.00000   180.00000     0.10548
    31.40000    90.00000   180.00000     0.07562    90.00000   180.00000     0.10536
    31.50000    90.00000   180.00000     0.07552    90.00000   180.00000     0.10525
    31.60000    90.00000   180.00000     0.07541    90.00000   180.00000     0.10513
    31.70000    90.00000   180.00000     0.07530    90.00000   180.00000     0.10501
    31.80000    90.00000   180.00000     0.07519    90.00000   180.00000     0.10489
    31.90000    90.00000   180.00000     0.07509    90.00000   180.00000     0.10478
    32.00000    90.00000   180.00000     0.07498    90.00000   180.00000     0.10466
    32.10000    90.00000   180.00000     0.07487    90.00000   180.00000     0.10454
    32.20000    90.00000   180.00000     0.07477    90.00000   180.00000     0.10442
    32.30000    90.00000   180.00000     0.07466    90.00000   180.00000     0.10431
    32.40000    90.00000   180.00000     0.07455    90.00000   180.00000     0.10419
    32.50000    90.00000   180.00000     0.07444    90.00000   180.00000     0.10407
    32.60000    90.00000   180.00000     0.07434    90.00000   180.00000     0.10396
    32.70000    90.00000   180.00000     0.07423    90.00000   180.00000     0.10384
    32.80000    90.00000   180.00000     0.07412    90.00000   180.00000     0.10372
    32.90000    90.00000   180.00000     0.07402    90.00000   180.00000     0.10360
    33.00000    90.00000   180.00000     0.07391    90.00000   180.00000     0.10349
    33.10000    90.00000   180.00000     0.07380    90.00000   180.00000     0.10337
    33.20000    90.00000   180.00000     0.07369    90.00000   180.00000     0.10325
    33.30000    90.00000   180.00000     0.07359    90.00000   180.00000     0.10313
    33.40000    90.00000   180.00000     0.07348    90.00000   180.00000     0.10302
    33.50000    90.00000   180.00000     0.07337    90.00000   180.00000     0.10290
    33.60000    90.00000   180.00000     0.07327    90.00000   180.00000     0.10278
    33.70000    90.00000   180.00000     0.07316    90.00000   180.00000     0.10266
    33.80000    90.00000   180.00000     0.07305    90.00000   180.00000     0.10255
    33.90000    90.00000   180.00000     0.07295    90.00000   180.00000     0.10243
    34.00000    90.00000   180.00000     0.07284    90.00000   180.00000     0.10231
    34.10000    90.00000   180.00000     0.07273    90.00000   180.00000     0.10220
    34.20000    90.00000   180.00000     0.07262    90.00000   180.00000     0.10208
    34.30000    90.00000   180.00000     0.07252    90.00000   180.00000     0.10196
    34.40000    90.00000   180.00000     0.07241    90.00000   180.00000     0.10184
    34.50000    90.00000   180.00000     0.07230    90.00000   180.00000     0.10173
    34.60000    90.00000   180.00000     0.07220    90.00000   180.00000     0.10161
    34.70000    90.00000   180.00000     0.07209    90.00000   180.00000     0.10149
    34.80000    90.00000   180.00000     0.07198    90.00000   180.00000     0.10138
    34.90000    90.00000   180.00000     0.07188    90.00000   180.00000     0.10126
    35.00000    90.00000   180.00000     0.07177    90.00000   180.00000     0.10114
    35.10000    90.00000   180.00000     0.07166    90.00000   180.00000     0.10102
    35.20000    90.00000   180.00000     0.07155    90.00000   180.00000     0.10091
    35.30000    90.00000   180.00000     0.07145    90.00000   180.00000     0.10079
    35.40000    90.00000   180.00000     0.07134    90.00000   180.00000     0.10067
    35.50000    90.00000   180.00000     0.07123    90.00000   180.00000     0.10056
    35.60000    90.00000   180.00000     0.07113    90.00000   180.00000     0.10044
    35.70000    90.00000   180.00000     0.07102    90.00000   180.00000     0.10032
    35.80000    90.00000   180.00000     0.07091    90.00000   180.00000     0.10020
    35.90000    90.00000   180.00000     0.07081    90.00000   180.00000     0.10009
    36.00000    90.00000   180.00000     0.07070    90.00000   180.00000     0.09997
    36.10000    90.00000   180.00000     0.07059    90.00000   180.00000     0.09985
    36.20000    90.00000   180.00000     0.07048    90.00000   180.00000     0.09974
    36.30000    90.00000   180.00000     0.07038    90.00000   180.00000     0.09962
    36.40000    90.00000   180.00000     0.07027    90.00000   180.00000     0.09950
    36.50000    90.00000   180.00000     0.07016    90.00000   180.00000     0.09939
    36.60000    90.00000   180.00000     0.07006    90.00000   180.00000     0.09927
    36.70000    90.00000   180.00000     0.06995    90.00000   180.00000     0.09915
    36.80000    90.00000   180.00000     0.06984    90.00000   180.00000     0.09903
    36.90000    90.00000   180.00000     0.06973    90.00000   180.00000     0.09892
    37.00000    90.00000   180.00000     0.06963    90.00000   180.00000     0.09880
    37.10000    90.00000   180.00000     0.06952    90.00000   180.00000     0.09868
    37.20000    90.00000   180.00000     0.06941    90.00000   180.00000     0.09857
    37.30000    90.00000   180.00000     0.06931    90.00000   180.00000     0.09845
    37.40000    90.00000   180.00000     0.06920    90.00000   180.00000     0.09833
    37.50000    90.00000   180.00000     0.06909    90.00000   180.00000     0.09822
    37.60000    90.00000   180.00000     0.06899    90.00000   180.00000     0.09810
    37.70000    90.00000   180.00000     0.06888    90.00000   180.00000     0.09798
    37.80000    90.00000   180.00000     0.06877    90.00000   180.00000     0.09787
    37.90000    90.00000   180.00000     0.06867    90.00000   180.00000     0.09775
    38.00000    90.00000   180.00000     0.06856    90.00000   180.00000     0.09763
    38.10000    90.00000   180.00000     0.06845    90.00000   180.00000     0.09751
    38.20000    90.00000   180.00000     0.06835    90.00000   180.00000     0.09740
    38.30000    90.00000   180.00000     0.06824    90.00000   180.00000     0.09728
    38.40000    90.00000   180.00000     0.06813    90.00000   180.00000     0.09716
    38.50000    90.00000   180.00000     0.06802    90.00000   180.00000     0.09705
    38.60000    90.00000   180.00000     0.06792    90.00000   180.00000     0.09693
    38.70000    90.00000   180.00000     0.06781    90.00000   180.00000     0.09681
    38.80000    90.00000   180.00000     0.06770    90.00000   180.00000     0.09670
    38.90000    90.00000   180.00000     0.06760    90.00000   180.00000     0.09658
    39.00000    90.00000   180.00000     0.06749    90.00000   180.00000     0.09646
    39.10000    90.00000   180.00000     0.06738    90.00000   180.00000     0.09635
    39.20000    90.00000   180.00000     0.06728    90.00000   180.00000     0.09623
    39.30000    90.00000   180.00000     0.06717    90.00000   180.00000     0.09611
    39.40000    90.00000   180.00000     0.06706    90.00000   180.00000     0.09600
    39.50000    90.00000   180.00000     0.06696    90.00000   180.00000     0.09588
    39.60000    90.00000   180.00000     0.06685    90.00000   180.00000     0.09576
    39.70000    90.00000   180.00000     0.06674    90.00000   180.00000     0.09565
    39.80000    90.00000   180.00000     0.06664    90.00000   180.00000     0.09553
    39.90000    90.00000   180.00000     0.06653    90.00000   180.00000     0.09541
    40.00000    90.00000   180.00000     0.06642    90.00000   180.00000     0.09530
