 # applied field (T), theta (degree), phi (degree), abs
     0.00000     0.00000     0.00000    35.88287
     0.10000     0.28662     0.00000    35.88287
     0.20000     0.63057     0.00000    35.88287
     0.30000     0.91720     0.00000    35.88287
     0.40000     1.20382     0.00000    35.88287
     0.50000     1.54777     0.00000    35.88287
     0.60000     1.83439     0.00000    35.88287
     0.70000     2.12102     0.00000    35.88287
     0.80000     2.46497     0.00000    35.88287
     0.90000     2.75159     0.00000    35.88287
     1.00000     3.03822     0.00000    35.88287
     1.10000     3.38217     0.00000    35.88287
     1.20000     3.66879     0.00000    35.88287
     1.30000     3.95541     0.00000    35.88287
     1.40000     4.29936     0.00000    35.88287
     1.50000     4.58599     0.00000    35.88287
     1.60000     4.92994     0.00000    35.88287
     1.70000     5.21656     0.00000    35.88287
     1.80000     5.50318     0.00000    35.88287
     1.90000     5.84713     0.00000    35.88287
     2.00000     6.13376     0.00000    35.88287
     2.10000     6.42038     0.00000    35.88287
     2.20000     6.76433     0.00000    35.88287
     2.30000     7.05096     0.00000    35.88287
     2.40000     7.33758     0.00000    35.88287
     2.50000     7.68153     0.00000    35.88287
     2.60000     7.96815     0.00000    35.88287
     2.70000     8.25478     0.00000    35.88287
     2.80000     8.59873     0.00000    35.88287
     2.90000     8.88535     0.00000    35.88287
     3.00000     9.17197     0.00000    35.88287
     3.10000     9.51592     0.00000    35.88287
     3.20000     9.80255     0.00000    35.88287
     3.30000    10.14650     0.00000    35.88287
     3.40000    10.43312     0.00000    35.88287
     3.50000    10.71975     0.00000    35.88287
     3.60000    11.06369     0.00000    35.88287
     3.70000    11.35032     0.00000    35.88287
     3.80000    11.63694     0.00000    35.88287
     3.90000    11.98089     0.00000    35.88287
     4.00000    12.26752     0.00000    35.88287
     4.10000    12.61146     0.00000    35.88287
     4.20000    12.89809     0.00000    35.88287
     4.30000    13.18471     0.00000    35.88287
     4.40000    13.52866     0.00000    35.88287
     4.50000    13.81529     0.00000    35.88287
     4.60000    14.15924     0.00000    35.88287
     4.70000    14.44586     0.00000    35.88287
     4.80000    14.73248     0.00000    35.88287
     4.90000    15.07643     0.00000    35.88287
     5.00000    15.36306     0.00000    35.88287
     5.10000    15.70701     0.00000    35.88287
     5.20000    15.99363     0.00000    35.88287
     5.30000    16.28025     0.00000    35.88287
     5.40000    16.62420     0.00000    35.88287
     5.50000    16.91083     0.00000    35.88287
     5.60000    17.25478     0.00000    35.88287
     5.70000    17.54140     0.00000    35.88287
     5.80000    17.88535     0.00000    35.88287
     5.90000    18.17197     0.00000    35.88287
     6.00000    18.45860     0.00000    35.88287
     6.10000    18.80255     0.00000    35.88287
     6.20000    19.08917     0.00000    35.88287
     6.30000    19.43312     0.00000    35.88287
     6.40000    19.71975     0.00000    35.88287
     6.50000    20.06369     0.00000    35.88287
     6.60000    20.35032     0.00000    35.88287
     6.70000    20.69427     0.00000    35.88287
     6.80000    20.98089     0.00000    35.88287
     6.90000    21.32484     0.00000    35.88287
     7.00000    21.61146     0.00000    35.88287
     7.10000    21.89809     0.00000    35.88287
     7.20000    22.24204     0.00000    35.88287
     7.30000    22.52866     0.00000    35.88287
     7.40000    22.87261     0.00000    35.88287
     7.50000    23.15924     0.00000    35.88287
     7.60000    23.50318     0.00000    35.88287
     7.70000    23.78981     0.00000    35.88287
     7.80000    24.13376     0.00000    35.88287
     7.90000    24.42038     0.00000    35.88287
     8.00000    24.76433     0.00000    35.88287
     8.10000    25.10828     0.00000    35.88287
     8.20000    25.39490     0.00000    35.88287
     8.30000    25.73885     0.00000    35.88287
     8.40000    26.02548     0.00000    35.88287
     8.50000    26.36943     0.00000    35.88287
     8.60000    26.65605     0.00000    35.88287
     8.70000    27.00000     0.00000    35.88287
     8.80000    27.28662     0.00000    35.88287
     8.90000    27.63057     0.00000    35.88287
     9.00000    27.97452     0.00000    35.88287
     9.10000    28.26115     0.00000    35.88287
     9.20000    28.60510     0.00000    35.88287
     9.30000    28.89172     0.00000    35.88287
     9.40000    29.23567     0.00000    35.88287
     9.50000    29.57962     0.00000    35.88287
     9.60000    29.86624     0.00000    35.88287
     9.70000    30.21019     0.00000    35.88287
     9.80000    30.55414     0.00000    35.88287
     9.90000    30.84076     0.00000    35.88287
    10.00000    31.18471     0.00000    35.88287
    10.10000    31.52866     0.00000    35.88287
    10.20000    31.81529     0.00000    35.88287
    10.30000    32.15924     0.00000    35.88287
    10.40000    32.50318     0.00000    35.88287
    10.50000    32.78981     0.00000    35.88287
    10.60000    33.13376     0.00000    35.88287
    10.70000    33.47771     0.00000    35.88287
    10.80000    33.82166     0.00000    35.88287
    10.90000    34.10828     0.00000    35.88287
    11.00000    34.45223     0.00000    35.88287
    11.10000    34.79618     0.00000    35.88287
    11.20000    35.14013     0.00000    35.88287
    11.30000    35.48408     0.00000    35.88287
    11.40000    35.77070     0.00000    35.88287
    11.50000    36.11465     0.00000    35.88287
    11.60000    36.45860     0.00000    35.88287
    11.70000    36.80255     0.00000    35.88287
    11.80000    37.14650     0.00000    35.88287
    11.90000    37.49045     0.00000    35.88287
    12.00000    37.83439     0.00000    35.88287
    12.10000    38.12102     0.00000    35.88287
    12.20000    38.46497     0.00000    35.88287
    12.30000    38.80892     0.00000    35.88287
    12.40000    39.15287     0.00000    35.88287
    12.50000    39.49682     0.00000    35.88287
    12.60000    39.84076     0.00000    35.88287
    12.70000    40.18471     0.00000    35.88287
    12.80000    40.52866     0.00000    35.88287
    12.90000    40.87261     0.00000    35.88287
    13.00000    41.21656     0.00000    35.88287
    13.10000    41.56051     0.00000    35.88287
    13.20000    41.90446     0.00000    35.88287
    13.30000    42.30573     0.00000    35.88287
    13.40000    42.64968     0.00000    35.88287
    13.50000    42.99363     0.00000    35.88287
    13.60000    43.33758     0.00000    35.88287
    13.70000    43.68153     0.00000    35.88287
    13.80000    44.02548     0.00000    35.88287
    13.90000    44.42675     0.00000    35.88287
    14.00000    44.77070     0.00000    35.88287
    14.10000    45.11465     0.00000    35.88287
    14.20000    45.45860     0.00000    35.88287
    14.30000    45.85987     0.00000    35.88287
    14.40000    46.20382     0.00000    35.88287
    14.50000    46.60510     0.00000    35.88287
    14.60000    46.94904     0.00000    35.88287
    14.70000    47.29299     0.00000    35.88287
    14.80000    47.69427     0.00000    35.88287
    14.90000    48.03822     0.00000    35.88287
    15.00000    48.43949     0.00000    35.88287
    15.10000    48.78344     0.00000    35.88287
    15.20000    49.18471     0.00000    35.88287
    15.30000    49.58599     0.00000    35.88287
    15.40000    49.92994     0.00000    35.88287
    15.50000    50.33121     0.00000    35.88287
    15.60000    50.73248     0.00000    35.88287
    15.70000    51.07643     0.00000    35.88287
    15.80000    51.47771     0.00000    35.88287
    15.90000    51.87898     0.00000    35.88287
    16.00000    52.28025     0.00000    35.88287
    16.10000    52.68153     0.00000    35.88287
    16.20000    53.08280     0.00000    35.88287
    16.30000    53.48408     0.00000    35.88287
    16.40000    53.88535     0.00000    35.88287
    16.50000    54.28662     0.00000    35.88287
    16.60000    54.68790     0.00000    35.88287
    16.70000    55.08917     0.00000    35.88287
    16.80000    55.49045     0.00000    35.88287
    16.90000    55.94904     0.00000    35.88287
    17.00000    56.35032     0.00000    35.88287
    17.10000    56.80892     0.00000    35.88287
    17.20000    57.21019     0.00000    35.88287
    17.30000    57.66879     0.00000    35.88287
    17.40000    58.07006     0.00000    35.88287
    17.50000    58.52866     0.00000    35.88287
    17.60000    58.98726     0.00000    35.88287
    17.70000    59.44586     0.00000    35.88287
    17.80000    59.90446     0.00000    35.88287
    17.90000    60.36306     0.00000    35.88287
    18.00000    60.82166     0.00000    35.88287
    18.10000    61.28025     0.00000    35.88287
    18.20000    61.73885     0.00000    35.88287
    18.30000    62.25478     0.00000    35.88287
    18.40000    62.71338     0.00000    35.88287
    18.50000    63.22930     0.00000    35.88287
    18.60000    63.74522     0.00000    35.88287
    18.70000    64.26115     0.00000    35.88287
    18.80000    64.77707     0.00000    35.88287
    18.90000    65.29299     0.00000    35.88287
    19.00000    65.80892     0.00000    35.88287
    19.10000    66.38217     0.00000    35.88287
    19.20000    66.89809     0.00000    35.88287
    19.30000    67.47134     0.00000    35.88287
    19.40000    68.04459     0.00000    35.88287
    19.50000    68.67516     0.00000    35.88287
    19.60000    69.24841     0.00000    35.88287
    19.70000    69.87898     0.00000    35.88287
    19.80000    70.50955     0.00000    35.88287
    19.90000    71.19745     0.00000    35.88287
    20.00000    71.82803     0.00000    35.88287
    20.10000    72.57325     0.00000    35.88287
    20.20000    73.26115     0.00000    35.88287
    20.30000    74.00637     0.00000    35.88287
    20.40000    74.80892     0.00000    35.88287
    20.50000    75.66879     0.00000    35.88287
    20.60000    76.52866     0.00000    35.88287
    20.70000    77.44586     0.00000    35.88287
    20.80000    78.47771     0.00000    35.88287
    20.90000    79.56688     0.00000    35.88287
    21.00000    80.77070     0.00000    35.88287
    21.10000    82.14650     0.00000    35.88287
    21.20000    83.86624     0.00000    35.88287
    21.30000    86.27389     0.00000    35.88287
    21.40000    90.00000     0.00000    35.88287
    21.50000    90.00000     0.00000    35.88287
    21.60000    90.00000     0.00000    35.88287
    21.70000    90.00000     0.00000    35.88287
    21.80000    90.00000     0.00000    35.88287
    21.90000    90.00000     0.00000    35.88287
    22.00000    90.00000     0.00000    35.88287
    22.10000    90.00000     0.00000    35.88287
    22.20000    90.00000     0.00000    35.88287
    22.30000    90.00000     0.00000    35.88287
    22.40000    90.00000     0.00000    35.88287
    22.50000    90.00000     0.00000    35.88287
    22.60000    90.00000     0.00000    35.88287
    22.70000    90.00000     0.00000    35.88287
    22.80000    90.00000     0.00000    35.88287
    22.90000    90.00000     0.00000    35.88287
    23.00000    90.00000     0.00000    35.88287
    23.10000    90.00000     0.00000    35.88287
    23.20000    90.00000     0.00000    35.88287
    23.30000    90.00000     0.00000    35.88287
    23.40000    90.00000     0.00000    35.88287
    23.50000    90.00000     0.00000    35.88287
    23.60000    90.00000     0.00000    35.88287
    23.70000    90.00000     0.00000    35.88287
    23.80000    90.00000     0.00000    35.88287
    23.90000    90.00000     0.00000    35.88287
    24.00000    90.00000     0.00000    35.88287
    24.10000    90.00000     0.00000    35.88287
    24.20000    90.00000     0.00000    35.88287
    24.30000    90.00000     0.00000    35.88287
    24.40000    90.00000     0.00000    35.88287
    24.50000    90.00000     0.00000    35.88287
    24.60000    90.00000     0.00000    35.88287
    24.70000    90.00000     0.00000    35.88287
    24.80000    90.00000     0.00000    35.88287
    24.90000    90.00000     0.00000    35.88287
    25.00000    90.00000     0.00000    35.88287
    25.10000    90.00000     0.00000    35.88287
    25.20000    90.00000     0.00000    35.88287
    25.30000    90.00000     0.00000    35.88287
    25.40000    90.00000     0.00000    35.88287
    25.50000    90.00000     0.00000    35.88287
    25.60000    90.00000     0.00000    35.88287
    25.70000    90.00000     0.00000    35.88287
    25.80000    90.00000     0.00000    35.88287
    25.90000    90.00000     0.00000    35.88287
    26.00000    90.00000     0.00000    35.88287
    26.10000    90.00000     0.00000    35.88287
    26.20000    90.00000     0.00000    35.88287
    26.30000    90.00000     0.00000    35.88287
    26.40000    90.00000     0.00000    35.88287
    26.50000    90.00000     0.00000    35.88287
    26.60000    90.00000     0.00000    35.88287
    26.70000    90.00000     0.00000    35.88287
    26.80000    90.00000     0.00000    35.88287
    26.90000    90.00000     0.00000    35.88287
    27.00000    90.00000     0.00000    35.88287
    27.10000    90.00000     0.00000    35.88287
    27.20000    90.00000     0.00000    35.88287
    27.30000    90.00000     0.00000    35.88287
    27.40000    90.00000     0.00000    35.88287
    27.50000    90.00000     0.00000    35.88287
    27.60000    90.00000     0.00000    35.88287
    27.70000    90.00000     0.00000    35.88287
    27.80000    90.00000     0.00000    35.88287
    27.90000    90.00000     0.00000    35.88287
    28.00000    90.00000     0.00000    35.88287
    28.10000    90.00000     0.00000    35.88287
    28.20000    90.00000     0.00000    35.88287
    28.30000    90.00000     0.00000    35.88287
    28.40000    90.00000     0.00000    35.88287
    28.50000    90.00000     0.00000    35.88287
    28.60000    90.00000     0.00000    35.88287
    28.70000    90.00000     0.00000    35.88287
    28.80000    90.00000     0.00000    35.88287
    28.90000    90.00000     0.00000    35.88287
    29.00000    90.00000     0.00000    35.88287
    29.10000    90.00000     0.00000    35.88287
    29.20000    90.00000     0.00000    35.88287
    29.30000    90.00000     0.00000    35.88287
    29.40000    90.00000     0.00000    35.88287
    29.50000    90.00000     0.00000    35.88287
    29.60000    90.00000     0.00000    35.88287
    29.70000    90.00000     0.00000    35.88287
    29.80000    90.00000     0.00000    35.88287
    29.90000    90.00000     0.00000    35.88287
    30.00000    90.00000     0.00000    35.88287
    30.10000    90.00000     0.00000    35.88287
    30.20000    90.00000     0.00000    35.88287
    30.30000    90.00000     0.00000    35.88287
    30.40000    90.00000     0.00000    35.88287
    30.50000    90.00000     0.00000    35.88287
    30.60000    90.00000     0.00000    35.88287
    30.70000    90.00000     0.00000    35.88287
    30.80000    90.00000     0.00000    35.88287
    30.90000    90.00000     0.00000    35.88287
    31.00000    90.00000     0.00000    35.88287
    31.10000    90.00000     0.00000    35.88287
    31.20000    90.00000     0.00000    35.88287
    31.30000    90.00000     0.00000    35.88287
    31.40000    90.00000     0.00000    35.88287
    31.50000    90.00000     0.00000    35.88287
    31.60000    90.00000     0.00000    35.88287
    31.70000    90.00000     0.00000    35.88287
    31.80000    90.00000     0.00000    35.88287
    31.90000    90.00000     0.00000    35.88287
    32.00000    90.00000     0.00000    35.88287
    32.10000    90.00000     0.00000    35.88287
    32.20000    90.00000     0.00000    35.88287
    32.30000    90.00000     0.00000    35.88287
    32.40000    90.00000     0.00000    35.88287
    32.50000    90.00000     0.00000    35.88287
    32.60000    90.00000     0.00000    35.88287
    32.70000    90.00000     0.00000    35.88287
    32.80000    90.00000     0.00000    35.88287
    32.90000    90.00000     0.00000    35.88287
    33.00000    90.00000     0.00000    35.88287
    33.10000    90.00000     0.00000    35.88287
    33.20000    90.00000     0.00000    35.88287
    33.30000    90.00000     0.00000    35.88287
    33.40000    90.00000     0.00000    35.88287
    33.50000    90.00000     0.00000    35.88287
    33.60000    90.00000     0.00000    35.88287
    33.70000    90.00000     0.00000    35.88287
    33.80000    90.00000     0.00000    35.88287
    33.90000    90.00000     0.00000    35.88287
    34.00000    90.00000     0.00000    35.88287
    34.10000    90.00000     0.00000    35.88287
    34.20000    90.00000     0.00000    35.88287
    34.30000    90.00000     0.00000    35.88287
    34.40000    90.00000     0.00000    35.88287
    34.50000    90.00000     0.00000    35.88287
    34.60000    90.00000     0.00000    35.88287
    34.70000    90.00000     0.00000    35.88287
    34.80000    90.00000     0.00000    35.88287
    34.90000    90.00000     0.00000    35.88287
    35.00000    90.00000     0.00000    35.88287
    35.10000    90.00000     0.00000    35.88287
    35.20000    90.00000     0.00000    35.88287
    35.30000    90.00000     0.00000    35.88287
    35.40000    90.00000     0.00000    35.88287
    35.50000    90.00000     0.00000    35.88287
    35.60000    90.00000     0.00000    35.88287
    35.70000    90.00000     0.00000    35.88287
    35.80000    90.00000     0.00000    35.88287
    35.90000    90.00000     0.00000    35.88287
    36.00000    90.00000     0.00000    35.88287
    36.10000    90.00000     0.00000    35.88287
    36.20000    90.00000     0.00000    35.88287
    36.30000    90.00000     0.00000    35.88287
    36.40000    90.00000     0.00000    35.88287
    36.50000    90.00000     0.00000    35.88287
    36.60000    90.00000     0.00000    35.88287
    36.70000    90.00000     0.00000    35.88287
    36.80000    90.00000     0.00000    35.88287
    36.90000    90.00000     0.00000    35.88287
    37.00000    90.00000     0.00000    35.88287
    37.10000    90.00000     0.00000    35.88287
    37.20000    90.00000     0.00000    35.88287
    37.30000    90.00000     0.00000    35.88287
    37.40000    90.00000     0.00000    35.88287
    37.50000    90.00000     0.00000    35.88287
    37.60000    90.00000     0.00000    35.88287
    37.70000    90.00000     0.00000    35.88287
    37.80000    90.00000     0.00000    35.88287
    37.90000    90.00000     0.00000    35.88287
    38.00000    90.00000     0.00000    35.88287
    38.10000    90.00000     0.00000    35.88287
    38.20000    90.00000     0.00000    35.88287
    38.30000    90.00000     0.00000    35.88287
    38.40000    90.00000     0.00000    35.88287
    38.50000    90.00000     0.00000    35.88287
    38.60000    90.00000     0.00000    35.88287
    38.70000    90.00000     0.00000    35.88287
    38.80000    90.00000     0.00000    35.88287
    38.90000    90.00000     0.00000    35.88287
    39.00000    90.00000     0.00000    35.88287
    39.10000    90.00000     0.00000    35.88287
    39.20000    90.00000     0.00000    35.88287
    39.30000    90.00000     0.00000    35.88287
    39.40000    90.00000     0.00000    35.88287
    39.50000    90.00000     0.00000    35.88287
    39.60000    90.00000     0.00000    35.88287
    39.70000    90.00000     0.00000    35.88287
    39.80000    90.00000     0.00000    35.88287
    39.90000    90.00000     0.00000    35.88287
    40.00000    90.00000     0.00000    35.88287
