 # applied field (T), theta (degree), phi (degree), abs for RE 1-2
     0.00000     0.00000     0.00000     3.45591     0.00000     0.00000     3.45591
     0.10000     0.46861   360.00000     3.45587     0.46861   360.00000     3.45587
     0.20000     0.98386   360.00000     3.45573     0.98386   360.00000     3.45573
     0.30000     1.45261   360.00000     3.45553     1.45261   360.00000     3.45553
     0.40000     1.92149   360.00000     3.45525     1.92149   360.00000     3.45525
     0.50000     2.39055   360.00000     3.45489     2.39055   360.00000     3.45489
     0.60000     2.90649   360.00000     3.45440     2.90649   360.00000     3.45440
     0.70000     3.37606   360.00000     3.45387     3.37606   360.00000     3.45387
     0.80000     3.84594   360.00000     3.45327     3.84594   360.00000     3.45327
     0.90000     4.31616   360.00000     3.45259     4.31616   360.00000     3.45259
     1.00000     4.83359   360.00000     3.45175     4.83359   360.00000     3.45175
     1.10000     5.30469   360.00000     3.45091     5.30469   360.00000     3.45091
     1.20000     5.82319   360.00000     3.44989     5.82319   360.00000     3.44989
     1.30000     6.29535   360.00000     3.44889     6.29535   360.00000     3.44889
     1.40000     6.76808   360.00000     3.44781     6.76808   360.00000     3.44781
     1.50000     7.28851   360.00000     3.44654     7.28851   360.00000     3.44654
     1.60000     7.76258   360.00000     3.44530     7.76258   360.00000     3.44530
     1.70000     8.28458   360.00000     3.44386     8.28458   360.00000     3.44386
     1.80000     8.76015   360.00000     3.44247     8.76015   360.00000     3.44247
     1.90000     9.28391   360.00000     3.44085     9.28391   360.00000     3.44085
     2.00000     9.76118   360.00000     3.43931     9.76118   360.00000     3.43931
     2.10000    10.28690   360.00000     3.43752    10.28690   360.00000     3.43752
     2.20000    10.81372   360.00000     3.43565    10.81372   360.00000     3.43565
     2.30000    11.29390   360.00000     3.43388    11.29390   360.00000     3.43388
     2.40000    11.82298   360.00000     3.43185    11.82298   360.00000     3.43185
     2.50000    12.35330   360.00000     3.42974    12.35330   360.00000     3.42974
     2.60000    12.88494   360.00000     3.42754    12.88494   360.00000     3.42754
     2.70000    13.41792   360.00000     3.42527    13.41792   360.00000     3.42527
     2.80000    13.95231   360.00000     3.42291    13.95231   360.00000     3.42291
     2.90000    14.48816   360.00000     3.42048    14.48816   360.00000     3.42048
     3.00000    15.02550   360.00000     3.41796    15.02550   360.00000     3.41796
     3.10000    15.56440   360.00000     3.41538    15.56440   360.00000     3.41538
     3.20000    16.10489   360.00000     3.41271    16.10489   360.00000     3.41271
     3.30000    16.64703   360.00000     3.40998    16.64703   360.00000     3.40998
     3.40000    17.24012   360.00000     3.40691    17.24012   360.00000     3.40691
     3.50000    17.78584   360.00000     3.40402    17.78584   360.00000     3.40402
     3.60000    18.38295   360.00000     3.40080    18.38295   360.00000     3.40080
     3.70000    18.93244   360.00000     3.39777    18.93244   360.00000     3.39777
     3.80000    19.53377   360.00000     3.39439    19.53377   360.00000     3.39439
     3.90000    20.13737   360.00000     3.39094    20.13737   360.00000     3.39094
     4.00000    20.74331   360.00000     3.38741    20.74331   360.00000     3.38741
     4.10000    21.35163   360.00000     3.38381    21.35163   360.00000     3.38381
     4.20000    21.96238   360.00000     3.38014    21.96238   360.00000     3.38014
     4.30000    22.57560   360.00000     3.37640    22.57560   360.00000     3.37640
     4.40000    23.19135   360.00000     3.37260    23.19135   360.00000     3.37260
     4.50000    23.86109   360.00000     3.36841    23.86109   360.00000     3.36841
     4.60000    24.48224   360.00000     3.36449    24.48224   360.00000     3.36449
     4.70000    25.15793   360.00000     3.36017    25.15793   360.00000     3.36017
     4.80000    25.83678   360.00000     3.35578    25.83678   360.00000     3.35578
     4.90000    26.51886   360.00000     3.35134    26.51886   360.00000     3.35134
     5.00000    27.20419   360.00000     3.34683    27.20419   360.00000     3.34683
     5.10000    27.89283   360.00000     3.34228    27.89283   360.00000     3.34228
     5.20000    28.63798   360.00000     3.33732    28.63798   360.00000     3.33732
     5.30000    29.33360   360.00000     3.33266    29.33360   360.00000     3.33266
     5.40000    30.08637   360.00000     3.32760    30.08637   360.00000     3.32760
     5.50000    30.89716   360.00000     3.32212    30.89716   360.00000     3.32212
     5.60000    31.65826   360.00000     3.31697    31.65826   360.00000     3.31697
     5.70000    32.42344   360.00000     3.31178    32.42344   360.00000     3.31178
     5.80000    33.24766   360.00000     3.30619    33.24766   360.00000     3.30619
     5.90000    34.07662   360.00000     3.30057    34.07662   360.00000     3.30057
     6.00000    34.96593   360.00000     3.29454    34.96593   360.00000     3.29454
     6.10000    35.86070   360.00000     3.28849    35.86070   360.00000     3.28849
     6.20000    36.76095   360.00000     3.28242    36.76095   360.00000     3.28242
     6.30000    37.66667   360.00000     3.27636    37.66667   360.00000     3.27636
     6.40000    38.63486   360.00000     3.26990    38.63486   360.00000     3.26990
     6.50000    39.60924   360.00000     3.26346    39.60924   360.00000     3.26346
     6.60000    40.64752   360.00000     3.25665    40.64752   360.00000     3.25665
     6.70000    41.69271   360.00000     3.24988    41.69271   360.00000     3.24988
     6.80000    42.74476   360.00000     3.24314    42.74476   360.00000     3.24314
     6.90000    43.92143   360.00000     3.23570    43.92143   360.00000     3.23570
     7.00000    45.10645   360.00000     3.22833    45.10645   360.00000     3.22833
     7.10000    46.29971   360.00000     3.22104    46.29971   360.00000     3.22104
     7.20000    47.56126   360.00000     3.21349    47.56126   360.00000     3.21349
     7.30000    48.95287   360.00000     3.20536    48.95287   360.00000     3.20536
     7.40000    50.35485   360.00000     3.19738    50.35485   360.00000     3.19738
     7.50000    51.82848   360.00000     3.18925    51.82848   360.00000     3.18925
     7.60000    53.43684   360.00000     3.18067    53.43684   360.00000     3.18067
     7.70000    55.11987   360.00000     3.17204    55.11987   360.00000     3.17204
     7.80000    56.94148   360.00000     3.16311    56.94148   360.00000     3.16311
     7.90000    58.90398   360.00000     3.15400    58.90398   360.00000     3.15400
     8.00000    61.07350   360.00000     3.14454    61.07350   360.00000     3.14454
     8.10000    63.45350   360.00000     3.13492    63.45350   360.00000     3.13492
     8.20000    66.11210   360.00000     3.12514    66.11210   360.00000     3.12514
     8.30000    69.25013   360.00000     3.11490    69.25013   360.00000     3.11490
     8.40000    73.07368   360.00000     3.10438    73.07368   360.00000     3.10438
     8.50000    78.19280   360.00000     3.09364    78.19280   360.00000     3.09364
     8.60000    90.00000   360.00000     3.08349    90.00000   360.00000     3.08349
     8.70000    90.00000   360.00000     3.08361    90.00000   360.00000     3.08361
     8.80000    90.00000   360.00000     3.08374    90.00000   360.00000     3.08374
     8.90000    90.00000   360.00000     3.08386    90.00000   360.00000     3.08386
     9.00000    90.00000   360.00000     3.08398    90.00000   360.00000     3.08398
     9.10000    90.00000   360.00000     3.08411    90.00000   360.00000     3.08411
     9.20000    90.00000   360.00000     3.08423    90.00000   360.00000     3.08423
     9.30000    90.00000   360.00000     3.08435    90.00000   360.00000     3.08435
     9.40000    90.00000   360.00000     3.08447    90.00000   360.00000     3.08447
     9.50000    90.00000   360.00000     3.08460    90.00000   360.00000     3.08460
     9.60000    90.00000   360.00000     3.08472    90.00000   360.00000     3.08472
     9.70000    90.00000   360.00000     3.08484    90.00000   360.00000     3.08484
     9.80000    90.00000   360.00000     3.08497    90.00000   360.00000     3.08497
     9.90000    90.00000   360.00000     3.08509    90.00000   360.00000     3.08509
    10.00000    90.00000   360.00000     3.08521    90.00000   360.00000     3.08521
    10.10000    90.00000   360.00000     3.08533    90.00000   360.00000     3.08533
    10.20000    90.00000   360.00000     3.08546    90.00000   360.00000     3.08546
    10.30000    90.00000   360.00000     3.08558    90.00000   360.00000     3.08558
    10.40000    90.00000   360.00000     3.08570    90.00000   360.00000     3.08570
    10.50000    90.00000   360.00000     3.08582    90.00000   360.00000     3.08582
    10.60000    90.00000   360.00000     3.08595    90.00000   360.00000     3.08595
    10.70000    90.00000   360.00000     3.08607    90.00000   360.00000     3.08607
    10.80000    90.00000   360.00000     3.08619    90.00000   360.00000     3.08619
    10.90000    90.00000   360.00000     3.08631    90.00000   360.00000     3.08631
    11.00000    90.00000   360.00000     3.08644    90.00000   360.00000     3.08644
    11.10000    90.00000   360.00000     3.08656    90.00000   360.00000     3.08656
    11.20000    90.00000   360.00000     3.08668    90.00000   360.00000     3.08668
    11.30000    90.00000   360.00000     3.08680    90.00000   360.00000     3.08680
    11.40000    90.00000   360.00000     3.08693    90.00000   360.00000     3.08693
    11.50000    90.00000   360.00000     3.08705    90.00000   360.00000     3.08705
    11.60000    90.00000   360.00000     3.08717    90.00000   360.00000     3.08717
    11.70000    90.00000   360.00000     3.08729    90.00000   360.00000     3.08729
    11.80000    90.00000   360.00000     3.08742    90.00000   360.00000     3.08742
    11.90000    90.00000   360.00000     3.08754    90.00000   360.00000     3.08754
    12.00000    90.00000   360.00000     3.08766    90.00000   360.00000     3.08766
    12.10000    90.00000   360.00000     3.08778    90.00000   360.00000     3.08778
    12.20000    90.00000   360.00000     3.08790    90.00000   360.00000     3.08790
    12.30000    90.00000   360.00000     3.08803    90.00000   360.00000     3.08803
    12.40000    90.00000   360.00000     3.08815    90.00000   360.00000     3.08815
    12.50000    90.00000   360.00000     3.08827    90.00000   360.00000     3.08827
    12.60000    90.00000   360.00000     3.08839    90.00000   360.00000     3.08839
    12.70000    90.00000   360.00000     3.08851    90.00000   360.00000     3.08851
    12.80000    90.00000   360.00000     3.08863    90.00000   360.00000     3.08863
    12.90000    90.00000   360.00000     3.08876    90.00000   360.00000     3.08876
    13.00000    90.00000   360.00000     3.08888    90.00000   360.00000     3.08888
    13.10000    90.00000   360.00000     3.08900    90.00000   360.00000     3.08900
    13.20000    90.00000   360.00000     3.08912    90.00000   360.00000     3.08912
    13.30000    90.00000   360.00000     3.08924    90.00000   360.00000     3.08924
    13.40000    90.00000   360.00000     3.08936    90.00000   360.00000     3.08936
    13.50000    90.00000   360.00000     3.08949    90.00000   360.00000     3.08949
    13.60000    90.00000   360.00000     3.08961    90.00000   360.00000     3.08961
    13.70000    90.00000   360.00000     3.08973    90.00000   360.00000     3.08973
    13.80000    90.00000   360.00000     3.08985    90.00000   360.00000     3.08985
    13.90000    90.00000   360.00000     3.08997    90.00000   360.00000     3.08997
    14.00000    90.00000   360.00000     3.09009    90.00000   360.00000     3.09009
    14.10000    90.00000   360.00000     3.09022    90.00000   360.00000     3.09022
    14.20000    90.00000   360.00000     3.09034    90.00000   360.00000     3.09034
    14.30000    90.00000   360.00000     3.09046    90.00000   360.00000     3.09046
    14.40000    90.00000   360.00000     3.09058    90.00000   360.00000     3.09058
    14.50000    90.00000   360.00000     3.09070    90.00000   360.00000     3.09070
    14.60000    90.00000   360.00000     3.09082    90.00000   360.00000     3.09082
    14.70000    90.00000   360.00000     3.09094    90.00000   360.00000     3.09094
    14.80000    90.00000   360.00000     3.09106    90.00000   360.00000     3.09106
    14.90000    90.00000   360.00000     3.09119    90.00000   360.00000     3.09119
    15.00000    90.00000   360.00000     3.09131    90.00000   360.00000     3.09131
    15.10000    90.00000   360.00000     3.09143    90.00000   360.00000     3.09143
    15.20000    90.00000   360.00000     3.09155    90.00000   360.00000     3.09155
    15.30000    90.00000   360.00000     3.09167    90.00000   360.00000     3.09167
    15.40000    90.00000   360.00000     3.09179    90.00000   360.00000     3.09179
    15.50000    90.00000   360.00000     3.09191    90.00000   360.00000     3.09191
    15.60000    90.00000   360.00000     3.09203    90.00000   360.00000     3.09203
    15.70000    90.00000   360.00000     3.09215    90.00000   360.00000     3.09215
    15.80000    90.00000   360.00000     3.09227    90.00000   360.00000     3.09227
    15.90000    90.00000   360.00000     3.09240    90.00000   360.00000     3.09240
    16.00000    90.00000   360.00000     3.09252    90.00000   360.00000     3.09252
    16.10000    90.00000   360.00000     3.09264    90.00000   360.00000     3.09264
    16.20000    90.00000   360.00000     3.09276    90.00000   360.00000     3.09276
    16.30000    90.00000   360.00000     3.09288    90.00000   360.00000     3.09288
    16.40000    90.00000   360.00000     3.09300    90.00000   360.00000     3.09300
    16.50000    90.00000   360.00000     3.09312    90.00000   360.00000     3.09312
    16.60000    90.00000   360.00000     3.09324    90.00000   360.00000     3.09324
    16.70000    90.00000   360.00000     3.09336    90.00000   360.00000     3.09336
    16.80000    90.00000   360.00000     3.09348    90.00000   360.00000     3.09348
    16.90000    90.00000   360.00000     3.09360    90.00000   360.00000     3.09360
    17.00000    90.00000   360.00000     3.09372    90.00000   360.00000     3.09372
    17.10000    90.00000   360.00000     3.09384    90.00000   360.00000     3.09384
    17.20000    90.00000   360.00000     3.09396    90.00000   360.00000     3.09396
    17.30000    90.00000   360.00000     3.09408    90.00000   360.00000     3.09408
    17.40000    90.00000   360.00000     3.09420    90.00000   360.00000     3.09420
    17.50000    90.00000   360.00000     3.09432    90.00000   360.00000     3.09432
    17.60000    90.00000   360.00000     3.09444    90.00000   360.00000     3.09444
    17.70000    90.00000   360.00000     3.09456    90.00000   360.00000     3.09456
    17.80000    90.00000   360.00000     3.09468    90.00000   360.00000     3.09468
    17.90000    90.00000   360.00000     3.09480    90.00000   360.00000     3.09480
    18.00000    90.00000   360.00000     3.09492    90.00000   360.00000     3.09492
    18.10000    90.00000   360.00000     3.09504    90.00000   360.00000     3.09504
    18.20000    90.00000   360.00000     3.09516    90.00000   360.00000     3.09516
    18.30000    90.00000   360.00000     3.09528    90.00000   360.00000     3.09528
    18.40000    90.00000   360.00000     3.09540    90.00000   360.00000     3.09540
    18.50000    90.00000   360.00000     3.09552    90.00000   360.00000     3.09552
    18.60000    90.00000   360.00000     3.09564    90.00000   360.00000     3.09564
    18.70000    90.00000   360.00000     3.09576    90.00000   360.00000     3.09576
    18.80000    90.00000   360.00000     3.09588    90.00000   360.00000     3.09588
    18.90000    90.00000   360.00000     3.09600    90.00000   360.00000     3.09600
    19.00000    90.00000   360.00000     3.09612    90.00000   360.00000     3.09612
    19.10000    90.00000   360.00000     3.09624    90.00000   360.00000     3.09624
    19.20000    90.00000   360.00000     3.09636    90.00000   360.00000     3.09636
    19.30000    90.00000   360.00000     3.09648    90.00000   360.00000     3.09648
    19.40000    90.00000   360.00000     3.09660    90.00000   360.00000     3.09660
    19.50000    90.00000   360.00000     3.09672    90.00000   360.00000     3.09672
    19.60000    90.00000   360.00000     3.09684    90.00000   360.00000     3.09684
    19.70000    90.00000   360.00000     3.09696    90.00000   360.00000     3.09696
    19.80000    90.00000   360.00000     3.09708    90.00000   360.00000     3.09708
    19.90000    90.00000   360.00000     3.09720    90.00000   360.00000     3.09720
    20.00000    90.00000   360.00000     3.09732    90.00000   360.00000     3.09732
    20.10000    90.00000   360.00000     3.09744    90.00000   360.00000     3.09744
    20.20000    90.00000   360.00000     3.09756    90.00000   360.00000     3.09756
    20.30000    90.00000   360.00000     3.09768    90.00000   360.00000     3.09768
    20.40000    90.00000   360.00000     3.09780    90.00000   360.00000     3.09780
    20.50000    90.00000   360.00000     3.09792    90.00000   360.00000     3.09792
    20.60000    90.00000   360.00000     3.09804    90.00000   360.00000     3.09804
    20.70000    90.00000   360.00000     3.09816    90.00000   360.00000     3.09816
    20.80000    90.00000   360.00000     3.09827    90.00000   360.00000     3.09827
    20.90000    90.00000   360.00000     3.09839    90.00000   360.00000     3.09839
    21.00000    90.00000   360.00000     3.09851    90.00000   360.00000     3.09851
    21.10000    90.00000   360.00000     3.09863    90.00000   360.00000     3.09863
    21.20000    90.00000   360.00000     3.09875    90.00000   360.00000     3.09875
    21.30000    90.00000   360.00000     3.09887    90.00000   360.00000     3.09887
    21.40000    90.00000   360.00000     3.09899    90.00000   360.00000     3.09899
    21.50000    90.00000   360.00000     3.09911    90.00000   360.00000     3.09911
    21.60000    90.00000   360.00000     3.09923    90.00000   360.00000     3.09923
    21.70000    90.00000   360.00000     3.09935    90.00000   360.00000     3.09935
    21.80000    90.00000   360.00000     3.09947    90.00000   360.00000     3.09947
    21.90000    90.00000   360.00000     3.09958    90.00000   360.00000     3.09958
    22.00000    90.00000   360.00000     3.09970    90.00000   360.00000     3.09970
    22.10000    90.00000   360.00000     3.09982    90.00000   360.00000     3.09982
    22.20000    90.00000   360.00000     3.09994    90.00000   360.00000     3.09994
    22.30000    90.00000   360.00000     3.10006    90.00000   360.00000     3.10006
    22.40000    90.00000   360.00000     3.10018    90.00000   360.00000     3.10018
    22.50000    90.00000   360.00000     3.10030    90.00000   360.00000     3.10030
    22.60000    90.00000   360.00000     3.10042    90.00000   360.00000     3.10042
    22.70000    90.00000   360.00000     3.10053    90.00000   360.00000     3.10053
    22.80000    90.00000   360.00000     3.10065    90.00000   360.00000     3.10065
    22.90000    90.00000   360.00000     3.10077    90.00000   360.00000     3.10077
    23.00000    90.00000   360.00000     3.10089    90.00000   360.00000     3.10089
    23.10000    90.00000   360.00000     3.10101    90.00000   360.00000     3.10101
    23.20000    90.00000   360.00000     3.10113    90.00000   360.00000     3.10113
    23.30000    90.00000   360.00000     3.10124    90.00000   360.00000     3.10124
    23.40000    90.00000   360.00000     3.10136    90.00000   360.00000     3.10136
    23.50000    90.00000   360.00000     3.10148    90.00000   360.00000     3.10148
    23.60000    90.00000   360.00000     3.10160    90.00000   360.00000     3.10160
    23.70000    90.00000   360.00000     3.10172    90.00000   360.00000     3.10172
    23.80000    90.00000   360.00000     3.10184    90.00000   360.00000     3.10184
    23.90000    90.00000   360.00000     3.10195    90.00000   360.00000     3.10195
    24.00000    90.00000   360.00000     3.10207    90.00000   360.00000     3.10207
    24.10000    90.00000   360.00000     3.10219    90.00000   360.00000     3.10219
    24.20000    90.00000   360.00000     3.10231    90.00000   360.00000     3.10231
    24.30000    90.00000   360.00000     3.10243    90.00000   360.00000     3.10243
    24.40000    90.00000   360.00000     3.10255    90.00000   360.00000     3.10255
    24.50000    90.00000   360.00000     3.10266    90.00000   360.00000     3.10266
    24.60000    90.00000   360.00000     3.10278    90.00000   360.00000     3.10278
    24.70000    90.00000   360.00000     3.10290    90.00000   360.00000     3.10290
    24.80000    90.00000   360.00000     3.10302    90.00000   360.00000     3.10302
    24.90000    90.00000   360.00000     3.10313    90.00000   360.00000     3.10313
    25.00000    90.00000   360.00000     3.10325    90.00000   360.00000     3.10325
    25.10000    90.00000   360.00000     3.10337    90.00000   360.00000     3.10337
    25.20000    90.00000   360.00000     3.10349    90.00000   360.00000     3.10349
    25.30000    90.00000   360.00000     3.10361    90.00000   360.00000     3.10361
    25.40000    90.00000   360.00000     3.10372    90.00000   360.00000     3.10372
    25.50000    90.00000   360.00000     3.10384    90.00000   360.00000     3.10384
    25.60000    90.00000   360.00000     3.10396    90.00000   360.00000     3.10396
    25.70000    90.00000   360.00000     3.10408    90.00000   360.00000     3.10408
    25.80000    90.00000   360.00000     3.10419    90.00000   360.00000     3.10419
    25.90000    90.00000   360.00000     3.10431    90.00000   360.00000     3.10431
    26.00000    90.00000   360.00000     3.10443    90.00000   360.00000     3.10443
    26.10000    90.00000   360.00000     3.10455    90.00000   360.00000     3.10455
    26.20000    90.00000   360.00000     3.10466    90.00000   360.00000     3.10466
    26.30000    90.00000   360.00000     3.10478    90.00000   360.00000     3.10478
    26.40000    90.00000   360.00000     3.10490    90.00000   360.00000     3.10490
    26.50000    90.00000   360.00000     3.10502    90.00000   360.00000     3.10502
    26.60000    90.00000   360.00000     3.10513    90.00000   360.00000     3.10513
    26.70000    90.00000   360.00000     3.10525    90.00000   360.00000     3.10525
    26.80000    90.00000   360.00000     3.10537    90.00000   360.00000     3.10537
    26.90000    90.00000   360.00000     3.10549    90.00000   360.00000     3.10549
    27.00000    90.00000   360.00000     3.10560    90.00000   360.00000     3.10560
    27.10000    90.00000   360.00000     3.10572    90.00000   360.00000     3.10572
    27.20000    90.00000   360.00000     3.10584    90.00000   360.00000     3.10584
    27.30000    90.00000   360.00000     3.10595    90.00000   360.00000     3.10595
    27.40000    90.00000   360.00000     3.10607    90.00000   360.00000     3.10607
    27.50000    90.00000   360.00000     3.10619    90.00000   360.00000     3.10619
    27.60000    90.00000   360.00000     3.10631    90.00000   360.00000     3.10631
    27.70000    90.00000   360.00000     3.10642    90.00000   360.00000     3.10642
    27.80000    90.00000   360.00000     3.10654    90.00000   360.00000     3.10654
    27.90000    90.00000   360.00000     3.10666    90.00000   360.00000     3.10666
    28.00000    90.00000   360.00000     3.10677    90.00000   360.00000     3.10677
    28.10000    90.00000   360.00000     3.10689    90.00000   360.00000     3.10689
    28.20000    90.00000   360.00000     3.10701    90.00000   360.00000     3.10701
    28.30000    90.00000   360.00000     3.10712    90.00000   360.00000     3.10712
    28.40000    90.00000   360.00000     3.10724    90.00000   360.00000     3.10724
    28.50000    90.00000   360.00000     3.10736    90.00000   360.00000     3.10736
    28.60000    90.00000   360.00000     3.10747    90.00000   360.00000     3.10747
    28.70000    90.00000   360.00000     3.10759    90.00000   360.00000     3.10759
    28.80000    90.00000   360.00000     3.10771    90.00000   360.00000     3.10771
    28.90000    90.00000   360.00000     3.10782    90.00000   360.00000     3.10782
    29.00000    90.00000   360.00000     3.10794    90.00000   360.00000     3.10794
    29.10000    90.00000   360.00000     3.10806    90.00000   360.00000     3.10806
    29.20000    90.00000   360.00000     3.10817    90.00000   360.00000     3.10817
    29.30000    90.00000   360.00000     3.10829    90.00000   360.00000     3.10829
    29.40000    90.00000   360.00000     3.10841    90.00000   360.00000     3.10841
    29.50000    90.00000   360.00000     3.10852    90.00000   360.00000     3.10852
    29.60000    90.00000   360.00000     3.10864    90.00000   360.00000     3.10864
    29.70000    90.00000   360.00000     3.10876    90.00000   360.00000     3.10876
    29.80000    90.00000   360.00000     3.10887    90.00000   360.00000     3.10887
    29.90000    90.00000   360.00000     3.10899    90.00000   360.00000     3.10899
    30.00000    90.00000   360.00000     3.10910    90.00000   360.00000     3.10910
    30.10000    90.00000   360.00000     3.10922    90.00000   360.00000     3.10922
    30.20000    90.00000   360.00000     3.10934    90.00000   360.00000     3.10934
    30.30000    90.00000   360.00000     3.10945    90.00000   360.00000     3.10945
    30.40000    90.00000   360.00000     3.10957    90.00000   360.00000     3.10957
    30.50000    90.00000   360.00000     3.10969    90.00000   360.00000     3.10969
    30.60000    90.00000   360.00000     3.10980    90.00000   360.00000     3.10980
    30.70000    90.00000   360.00000     3.10992    90.00000   360.00000     3.10992
    30.80000    90.00000   360.00000     3.11003    90.00000   360.00000     3.11003
    30.90000    90.00000   360.00000     3.11015    90.00000   360.00000     3.11015
    31.00000    90.00000   360.00000     3.11027    90.00000   360.00000     3.11027
    31.10000    90.00000   360.00000     3.11038    90.00000   360.00000     3.11038
    31.20000    90.00000   360.00000     3.11050    90.00000   360.00000     3.11050
    31.30000    90.00000   360.00000     3.11061    90.00000   360.00000     3.11061
    31.40000    90.00000   360.00000     3.11073    90.00000   360.00000     3.11073
    31.50000    90.00000   360.00000     3.11084    90.00000   360.00000     3.11084
    31.60000    90.00000   360.00000     3.11096    90.00000   360.00000     3.11096
    31.70000    90.00000   360.00000     3.11108    90.00000   360.00000     3.11108
    31.80000    90.00000   360.00000     3.11119    90.00000   360.00000     3.11119
    31.90000    90.00000   360.00000     3.11131    90.00000   360.00000     3.11131
    32.00000    90.00000   360.00000     3.11142    90.00000   360.00000     3.11142
    32.10000    90.00000   360.00000     3.11154    90.00000   360.00000     3.11154
    32.20000    90.00000   360.00000     3.11165    90.00000   360.00000     3.11165
    32.30000    90.00000   360.00000     3.11177    90.00000   360.00000     3.11177
    32.40000    90.00000   360.00000     3.11188    90.00000   360.00000     3.11188
    32.50000    90.00000   360.00000     3.11200    90.00000   360.00000     3.11200
    32.60000    90.00000   360.00000     3.11212    90.00000   360.00000     3.11212
    32.70000    90.00000   360.00000     3.11223    90.00000   360.00000     3.11223
    32.80000    90.00000   360.00000     3.11235    90.00000   360.00000     3.11235
    32.90000    90.00000   360.00000     3.11246    90.00000   360.00000     3.11246
    33.00000    90.00000   360.00000     3.11258    90.00000   360.00000     3.11258
    33.10000    90.00000   360.00000     3.11269    90.00000   360.00000     3.11269
    33.20000    90.00000   360.00000     3.11281    90.00000   360.00000     3.11281
    33.30000    90.00000   360.00000     3.11292    90.00000   360.00000     3.11292
    33.40000    90.00000   360.00000     3.11304    90.00000   360.00000     3.11304
    33.50000    90.00000   360.00000     3.11315    90.00000   360.00000     3.11315
    33.60000    90.00000   360.00000     3.11327    90.00000   360.00000     3.11327
    33.70000    90.00000   360.00000     3.11338    90.00000   360.00000     3.11338
    33.80000    90.00000   360.00000     3.11350    90.00000   360.00000     3.11350
    33.90000    90.00000   360.00000     3.11361    90.00000   360.00000     3.11361
    34.00000    90.00000   360.00000     3.11373    90.00000   360.00000     3.11373
    34.10000    90.00000   360.00000     3.11384    90.00000   360.00000     3.11384
    34.20000    90.00000   360.00000     3.11396    90.00000   360.00000     3.11396
    34.30000    90.00000   360.00000     3.11407    90.00000   360.00000     3.11407
    34.40000    90.00000   360.00000     3.11419    90.00000   360.00000     3.11419
    34.50000    90.00000   360.00000     3.11430    90.00000   360.00000     3.11430
    34.60000    90.00000   360.00000     3.11442    90.00000   360.00000     3.11442
    34.70000    90.00000   360.00000     3.11453    90.00000   360.00000     3.11453
    34.80000    90.00000   360.00000     3.11465    90.00000   360.00000     3.11465
    34.90000    90.00000   360.00000     3.11476    90.00000   360.00000     3.11476
    35.00000    90.00000   360.00000     3.11488    90.00000   360.00000     3.11488
    35.10000    90.00000   360.00000     3.11499    90.00000   360.00000     3.11499
    35.20000    90.00000   360.00000     3.11510    90.00000   360.00000     3.11510
    35.30000    90.00000   360.00000     3.11522    90.00000   360.00000     3.11522
    35.40000    90.00000   360.00000     3.11533    90.00000   360.00000     3.11533
    35.50000    90.00000   360.00000     3.11545    90.00000   360.00000     3.11545
    35.60000    90.00000   360.00000     3.11556    90.00000   360.00000     3.11556
    35.70000    90.00000   360.00000     3.11568    90.00000   360.00000     3.11568
    35.80000    90.00000   360.00000     3.11579    90.00000   360.00000     3.11579
    35.90000    90.00000   360.00000     3.11591    90.00000   360.00000     3.11591
    36.00000    90.00000   360.00000     3.11602    90.00000   360.00000     3.11602
    36.10000    90.00000   360.00000     3.11613    90.00000   360.00000     3.11613
    36.20000    90.00000   360.00000     3.11625    90.00000   360.00000     3.11625
    36.30000    90.00000   360.00000     3.11636    90.00000   360.00000     3.11636
    36.40000    90.00000   360.00000     3.11648    90.00000   360.00000     3.11648
    36.50000    90.00000   360.00000     3.11659    90.00000   360.00000     3.11659
    36.60000    90.00000   360.00000     3.11671    90.00000   360.00000     3.11671
    36.70000    90.00000   360.00000     3.11682    90.00000   360.00000     3.11682
    36.80000    90.00000   360.00000     3.11693    90.00000   360.00000     3.11693
    36.90000    90.00000   360.00000     3.11705    90.00000   360.00000     3.11705
    37.00000    90.00000   360.00000     3.11716    90.00000   360.00000     3.11716
    37.10000    90.00000   360.00000     3.11728    90.00000   360.00000     3.11728
    37.20000    90.00000   360.00000     3.11739    90.00000   360.00000     3.11739
    37.30000    90.00000   360.00000     3.11750    90.00000   360.00000     3.11750
    37.40000    90.00000   360.00000     3.11762    90.00000   360.00000     3.11762
    37.50000    90.00000   360.00000     3.11773    90.00000   360.00000     3.11773
    37.60000    90.00000   360.00000     3.11784    90.00000   360.00000     3.11784
    37.70000    90.00000   360.00000     3.11796    90.00000   360.00000     3.11796
    37.80000    90.00000   360.00000     3.11807    90.00000   360.00000     3.11807
    37.90000    90.00000   360.00000     3.11819    90.00000   360.00000     3.11819
    38.00000    90.00000   360.00000     3.11830    90.00000   360.00000     3.11830
    38.10000    90.00000   360.00000     3.11841    90.00000   360.00000     3.11841
    38.20000    90.00000   360.00000     3.11853    90.00000   360.00000     3.11853
    38.30000    90.00000   360.00000     3.11864    90.00000   360.00000     3.11864
    38.40000    90.00000   360.00000     3.11875    90.00000   360.00000     3.11875
    38.50000    90.00000   360.00000     3.11887    90.00000   360.00000     3.11887
    38.60000    90.00000   360.00000     3.11898    90.00000   360.00000     3.11898
    38.70000    90.00000   360.00000     3.11909    90.00000   360.00000     3.11909
    38.80000    90.00000   360.00000     3.11921    90.00000   360.00000     3.11921
    38.90000    90.00000   360.00000     3.11932    90.00000   360.00000     3.11932
    39.00000    90.00000   360.00000     3.11943    90.00000   360.00000     3.11943
    39.10000    90.00000   360.00000     3.11955    90.00000   360.00000     3.11955
    39.20000    90.00000   360.00000     3.11966    90.00000   360.00000     3.11966
    39.30000    90.00000   360.00000     3.11977    90.00000   360.00000     3.11977
    39.40000    90.00000   360.00000     3.11989    90.00000   360.00000     3.11989
    39.50000    90.00000   360.00000     3.12000    90.00000   360.00000     3.12000
    39.60000    90.00000   360.00000     3.12011    90.00000   360.00000     3.12011
    39.70000    90.00000   360.00000     3.12023    90.00000   360.00000     3.12023
    39.80000    90.00000   360.00000     3.12034    90.00000   360.00000     3.12034
    39.90000    90.00000   360.00000     3.12045    90.00000   360.00000     3.12045
    40.00000    90.00000   360.00000     3.12057    90.00000   360.00000     3.12057
