 # applied field (T), theta (degree), phi (degree), abs for RE 1-2
     0.00000    90.00000    44.57227     2.95648    90.00000    44.57227     2.95648
     0.10000    90.00000   360.00000     2.95415    90.00000   360.00000     2.95415
     0.20000    90.00000   360.00000     2.95427    90.00000   360.00000     2.95427
     0.30000    90.00000   360.00000     2.95439    90.00000   360.00000     2.95439
     0.40000    90.00000   360.00000     2.95451    90.00000   360.00000     2.95451
     0.50000    90.00000   360.00000     2.95463    90.00000   360.00000     2.95463
     0.60000    90.00000   360.00000     2.95475    90.00000   360.00000     2.95475
     0.70000    90.00000   360.00000     2.95487    90.00000   360.00000     2.95487
     0.80000    90.00000   360.00000     2.95499    90.00000   360.00000     2.95499
     0.90000    90.00000   360.00000     2.95511    90.00000   360.00000     2.95511
     1.00000    90.00000   360.00000     2.95523    90.00000   360.00000     2.95523
     1.10000    90.00000   360.00000     2.95535    90.00000   360.00000     2.95535
     1.20000    90.00000   360.00000     2.95547    90.00000   360.00000     2.95547
     1.30000    90.00000   360.00000     2.95559    90.00000   360.00000     2.95559
     1.40000    90.00000   360.00000     2.95571    90.00000   360.00000     2.95571
     1.50000    90.00000   360.00000     2.95583    90.00000   360.00000     2.95583
     1.60000    90.00000   360.00000     2.95595    90.00000   360.00000     2.95595
     1.70000    90.00000   360.00000     2.95607    90.00000   360.00000     2.95607
     1.80000    90.00000   360.00000     2.95619    90.00000   360.00000     2.95619
     1.90000    90.00000   360.00000     2.95630    90.00000   360.00000     2.95630
     2.00000    90.00000   360.00000     2.95642    90.00000   360.00000     2.95642
     2.10000    90.00000   360.00000     2.95654    90.00000   360.00000     2.95654
     2.20000    90.00000   360.00000     2.95666    90.00000   360.00000     2.95666
     2.30000    90.00000   360.00000     2.95678    90.00000   360.00000     2.95678
     2.40000    90.00000   360.00000     2.95690    90.00000   360.00000     2.95690
     2.50000    90.00000   360.00000     2.95702    90.00000   360.00000     2.95702
     2.60000    90.00000   360.00000     2.95714    90.00000   360.00000     2.95714
     2.70000    90.00000   360.00000     2.95726    90.00000   360.00000     2.95726
     2.80000    90.00000   360.00000     2.95738    90.00000   360.00000     2.95738
     2.90000    90.00000   360.00000     2.95750    90.00000   360.00000     2.95750
     3.00000    90.00000   360.00000     2.95762    90.00000   360.00000     2.95762
     3.10000    90.00000   360.00000     2.95773    90.00000   360.00000     2.95773
     3.20000    90.00000   360.00000     2.95785    90.00000   360.00000     2.95785
     3.30000    90.00000   360.00000     2.95797    90.00000   360.00000     2.95797
     3.40000    90.00000   360.00000     2.95809    90.00000   360.00000     2.95809
     3.50000    90.00000   360.00000     2.95821    90.00000   360.00000     2.95821
     3.60000    90.00000   360.00000     2.95833    90.00000   360.00000     2.95833
     3.70000    90.00000   360.00000     2.95845    90.00000   360.00000     2.95845
     3.80000    90.00000   360.00000     2.95857    90.00000   360.00000     2.95857
     3.90000    90.00000   360.00000     2.95868    90.00000   360.00000     2.95868
     4.00000    90.00000   360.00000     2.95880    90.00000   360.00000     2.95880
     4.10000    90.00000   360.00000     2.95892    90.00000   360.00000     2.95892
     4.20000    90.00000   360.00000     2.95904    90.00000   360.00000     2.95904
     4.30000    90.00000   360.00000     2.95916    90.00000   360.00000     2.95916
     4.40000    90.00000   360.00000     2.95928    90.00000   360.00000     2.95928
     4.50000    90.00000   360.00000     2.95940    90.00000   360.00000     2.95940
     4.60000    90.00000   360.00000     2.95951    90.00000   360.00000     2.95951
     4.70000    90.00000   360.00000     2.95963    90.00000   360.00000     2.95963
     4.80000    90.00000   360.00000     2.95975    90.00000   360.00000     2.95975
     4.90000    90.00000   360.00000     2.95987    90.00000   360.00000     2.95987
     5.00000    90.00000   360.00000     2.95999    90.00000   360.00000     2.95999
     5.10000    90.00000   360.00000     2.96011    90.00000   360.00000     2.96011
     5.20000    90.00000   360.00000     2.96022    90.00000   360.00000     2.96022
     5.30000    90.00000   360.00000     2.96034    90.00000   360.00000     2.96034
     5.40000    90.00000   360.00000     2.96046    90.00000   360.00000     2.96046
     5.50000    90.00000   360.00000     2.96058    90.00000   360.00000     2.96058
     5.60000    90.00000   360.00000     2.96070    90.00000   360.00000     2.96070
     5.70000    90.00000   360.00000     2.96082    90.00000   360.00000     2.96082
     5.80000    90.00000   360.00000     2.96093    90.00000   360.00000     2.96093
     5.90000    90.00000   360.00000     2.96105    90.00000   360.00000     2.96105
     6.00000    90.00000   360.00000     2.96117    90.00000   360.00000     2.96117
     6.10000    90.00000   360.00000     2.96129    90.00000   360.00000     2.96129
     6.20000    90.00000   360.00000     2.96141    90.00000   360.00000     2.96141
     6.30000    90.00000   360.00000     2.96152    90.00000   360.00000     2.96152
     6.40000    90.00000   360.00000     2.96164    90.00000   360.00000     2.96164
     6.50000    90.00000   360.00000     2.96176    90.00000   360.00000     2.96176
     6.60000    90.00000   360.00000     2.96188    90.00000   360.00000     2.96188
     6.70000    90.00000   360.00000     2.96199    90.00000   360.00000     2.96199
     6.80000    90.00000   360.00000     2.96211    90.00000   360.00000     2.96211
     6.90000    90.00000   360.00000     2.96223    90.00000   360.00000     2.96223
     7.00000    90.00000   360.00000     2.96235    90.00000   360.00000     2.96235
     7.10000    90.00000   360.00000     2.96246    90.00000   360.00000     2.96246
     7.20000    90.00000   360.00000     2.96258    90.00000   360.00000     2.96258
     7.30000    90.00000   360.00000     2.96270    90.00000   360.00000     2.96270
     7.40000    90.00000   360.00000     2.96282    90.00000   360.00000     2.96282
     7.50000    90.00000   360.00000     2.96294    90.00000   360.00000     2.96294
     7.60000    90.00000   360.00000     2.96305    90.00000   360.00000     2.96305
     7.70000    90.00000   360.00000     2.96317    90.00000   360.00000     2.96317
     7.80000    90.00000   360.00000     2.96329    90.00000   360.00000     2.96329
     7.90000    90.00000   360.00000     2.96340    90.00000   360.00000     2.96340
     8.00000    90.00000   360.00000     2.96352    90.00000   360.00000     2.96352
     8.10000    90.00000   360.00000     2.96364    90.00000   360.00000     2.96364
     8.20000    90.00000   360.00000     2.96376    90.00000   360.00000     2.96376
     8.30000    90.00000   360.00000     2.96387    90.00000   360.00000     2.96387
     8.40000    90.00000   360.00000     2.96399    90.00000   360.00000     2.96399
     8.50000    90.00000   360.00000     2.96411    90.00000   360.00000     2.96411
     8.60000    90.00000   360.00000     2.96423    90.00000   360.00000     2.96423
     8.70000    90.00000   360.00000     2.96434    90.00000   360.00000     2.96434
     8.80000    90.00000   360.00000     2.96446    90.00000   360.00000     2.96446
     8.90000    90.00000   360.00000     2.96458    90.00000   360.00000     2.96458
     9.00000    90.00000   360.00000     2.96469    90.00000   360.00000     2.96469
     9.10000    90.00000   360.00000     2.96481    90.00000   360.00000     2.96481
     9.20000    90.00000   360.00000     2.96493    90.00000   360.00000     2.96493
     9.30000    90.00000   360.00000     2.96504    90.00000   360.00000     2.96504
     9.40000    90.00000   360.00000     2.96516    90.00000   360.00000     2.96516
     9.50000    90.00000   360.00000     2.96528    90.00000   360.00000     2.96528
     9.60000    90.00000   360.00000     2.96539    90.00000   360.00000     2.96539
     9.70000    90.00000   360.00000     2.96551    90.00000   360.00000     2.96551
     9.80000    90.00000   360.00000     2.96563    90.00000   360.00000     2.96563
     9.90000    90.00000   360.00000     2.96575    90.00000   360.00000     2.96575
    10.00000    90.00000   360.00000     2.96586    90.00000   360.00000     2.96586
    10.10000    90.00000   360.00000     2.96598    90.00000   360.00000     2.96598
    10.20000    90.00000   360.00000     2.96609    90.00000   360.00000     2.96609
    10.30000    90.00000   360.00000     2.96621    90.00000   360.00000     2.96621
    10.40000    90.00000   360.00000     2.96633    90.00000   360.00000     2.96633
    10.50000    90.00000   360.00000     2.96644    90.00000   360.00000     2.96644
    10.60000    90.00000   360.00000     2.96656    90.00000   360.00000     2.96656
    10.70000    90.00000   360.00000     2.96668    90.00000   360.00000     2.96668
    10.80000    90.00000   360.00000     2.96679    90.00000   360.00000     2.96679
    10.90000    90.00000   360.00000     2.96691    90.00000   360.00000     2.96691
    11.00000    90.00000   360.00000     2.96703    90.00000   360.00000     2.96703
    11.10000    90.00000   360.00000     2.96714    90.00000   360.00000     2.96714
    11.20000    90.00000   360.00000     2.96726    90.00000   360.00000     2.96726
    11.30000    90.00000   360.00000     2.96738    90.00000   360.00000     2.96738
    11.40000    90.00000   360.00000     2.96749    90.00000   360.00000     2.96749
    11.50000    90.00000   360.00000     2.96761    90.00000   360.00000     2.96761
    11.60000    90.00000   360.00000     2.96772    90.00000   360.00000     2.96772
    11.70000    90.00000   360.00000     2.96784    90.00000   360.00000     2.96784
    11.80000    90.00000   360.00000     2.96796    90.00000   360.00000     2.96796
    11.90000    90.00000   360.00000     2.96807    90.00000   360.00000     2.96807
    12.00000    90.00000   360.00000     2.96819    90.00000   360.00000     2.96819
    12.10000    90.00000   360.00000     2.96830    90.00000   360.00000     2.96830
    12.20000    90.00000   360.00000     2.96842    90.00000   360.00000     2.96842
    12.30000    90.00000   360.00000     2.96854    90.00000   360.00000     2.96854
    12.40000    90.00000   360.00000     2.96865    90.00000   360.00000     2.96865
    12.50000    90.00000   360.00000     2.96877    90.00000   360.00000     2.96877
    12.60000    90.00000   360.00000     2.96888    90.00000   360.00000     2.96888
    12.70000    90.00000   360.00000     2.96900    90.00000   360.00000     2.96900
    12.80000    90.00000   360.00000     2.96912    90.00000   360.00000     2.96912
    12.90000    90.00000   360.00000     2.96923    90.00000   360.00000     2.96923
    13.00000    90.00000   360.00000     2.96935    90.00000   360.00000     2.96935
    13.10000    90.00000   360.00000     2.96946    90.00000   360.00000     2.96946
    13.20000    90.00000   360.00000     2.96958    90.00000   360.00000     2.96958
    13.30000    90.00000   360.00000     2.96969    90.00000   360.00000     2.96969
    13.40000    90.00000   360.00000     2.96981    90.00000   360.00000     2.96981
    13.50000    90.00000   360.00000     2.96992    90.00000   360.00000     2.96992
    13.60000    90.00000   360.00000     2.97004    90.00000   360.00000     2.97004
    13.70000    90.00000   360.00000     2.97016    90.00000   360.00000     2.97016
    13.80000    90.00000   360.00000     2.97027    90.00000   360.00000     2.97027
    13.90000    90.00000   360.00000     2.97039    90.00000   360.00000     2.97039
    14.00000    90.00000   360.00000     2.97050    90.00000   360.00000     2.97050
    14.10000    90.00000   360.00000     2.97062    90.00000   360.00000     2.97062
    14.20000    90.00000   360.00000     2.97073    90.00000   360.00000     2.97073
    14.30000    90.00000   360.00000     2.97085    90.00000   360.00000     2.97085
    14.40000    90.00000   360.00000     2.97096    90.00000   360.00000     2.97096
    14.50000    90.00000   360.00000     2.97108    90.00000   360.00000     2.97108
    14.60000    90.00000   360.00000     2.97119    90.00000   360.00000     2.97119
    14.70000    90.00000   360.00000     2.97131    90.00000   360.00000     2.97131
    14.80000    90.00000   360.00000     2.97142    90.00000   360.00000     2.97142
    14.90000    90.00000   360.00000     2.97154    90.00000   360.00000     2.97154
    15.00000    90.00000   360.00000     2.97165    90.00000   360.00000     2.97165
    15.10000    90.00000   360.00000     2.97177    90.00000   360.00000     2.97177
    15.20000    90.00000   360.00000     2.97188    90.00000   360.00000     2.97188
    15.30000    90.00000   360.00000     2.97200    90.00000   360.00000     2.97200
    15.40000    90.00000   360.00000     2.97211    90.00000   360.00000     2.97211
    15.50000    90.00000   360.00000     2.97223    90.00000   360.00000     2.97223
    15.60000    90.00000   360.00000     2.97234    90.00000   360.00000     2.97234
    15.70000    90.00000   360.00000     2.97246    90.00000   360.00000     2.97246
    15.80000    90.00000   360.00000     2.97257    90.00000   360.00000     2.97257
    15.90000    90.00000   360.00000     2.97269    90.00000   360.00000     2.97269
    16.00000    90.00000   360.00000     2.97280    90.00000   360.00000     2.97280
    16.10000    90.00000   360.00000     2.97292    90.00000   360.00000     2.97292
    16.20000    90.00000   360.00000     2.97303    90.00000   360.00000     2.97303
    16.30000    90.00000   360.00000     2.97315    90.00000   360.00000     2.97315
    16.40000    90.00000   360.00000     2.97326    90.00000   360.00000     2.97326
    16.50000    90.00000   360.00000     2.97337    90.00000   360.00000     2.97337
    16.60000    90.00000   360.00000     2.97349    90.00000   360.00000     2.97349
    16.70000    90.00000   360.00000     2.97360    90.00000   360.00000     2.97360
    16.80000    90.00000   360.00000     2.97372    90.00000   360.00000     2.97372
    16.90000    90.00000   360.00000     2.97383    90.00000   360.00000     2.97383
    17.00000    90.00000   360.00000     2.97395    90.00000   360.00000     2.97395
    17.10000    90.00000   360.00000     2.97406    90.00000   360.00000     2.97406
    17.20000    90.00000   360.00000     2.97418    90.00000   360.00000     2.97418
    17.30000    90.00000   360.00000     2.97429    90.00000   360.00000     2.97429
    17.40000    90.00000   360.00000     2.97440    90.00000   360.00000     2.97440
    17.50000    90.00000   360.00000     2.97452    90.00000   360.00000     2.97452
    17.60000    90.00000   360.00000     2.97463    90.00000   360.00000     2.97463
    17.70000    90.00000   360.00000     2.97475    90.00000   360.00000     2.97475
    17.80000    90.00000   360.00000     2.97486    90.00000   360.00000     2.97486
    17.90000    90.00000   360.00000     2.97497    90.00000   360.00000     2.97497
    18.00000    90.00000   360.00000     2.97509    90.00000   360.00000     2.97509
    18.10000    90.00000   360.00000     2.97520    90.00000   360.00000     2.97520
    18.20000    90.00000   360.00000     2.97532    90.00000   360.00000     2.97532
    18.30000    90.00000   360.00000     2.97543    90.00000   360.00000     2.97543
    18.40000    90.00000   360.00000     2.97554    90.00000   360.00000     2.97554
    18.50000    90.00000   360.00000     2.97566    90.00000   360.00000     2.97566
    18.60000    90.00000   360.00000     2.97577    90.00000   360.00000     2.97577
    18.70000    90.00000   360.00000     2.97589    90.00000   360.00000     2.97589
    18.80000    90.00000   360.00000     2.97600    90.00000   360.00000     2.97600
    18.90000    90.00000   360.00000     2.97611    90.00000   360.00000     2.97611
    19.00000    90.00000   360.00000     2.97623    90.00000   360.00000     2.97623
    19.10000    90.00000   360.00000     2.97634    90.00000   360.00000     2.97634
    19.20000    90.00000   360.00000     2.97646    90.00000   360.00000     2.97646
    19.30000    90.00000   360.00000     2.97657    90.00000   360.00000     2.97657
    19.40000    90.00000   360.00000     2.97668    90.00000   360.00000     2.97668
    19.50000    90.00000   360.00000     2.97680    90.00000   360.00000     2.97680
    19.60000    90.00000   360.00000     2.97691    90.00000   360.00000     2.97691
    19.70000    90.00000   360.00000     2.97702    90.00000   360.00000     2.97702
    19.80000    90.00000   360.00000     2.97714    90.00000   360.00000     2.97714
    19.90000    90.00000   360.00000     2.97725    90.00000   360.00000     2.97725
    20.00000    90.00000   360.00000     2.97736    90.00000   360.00000     2.97736
    20.10000    90.00000   360.00000     2.97748    90.00000   360.00000     2.97748
    20.20000    90.00000   360.00000     2.97759    90.00000   360.00000     2.97759
    20.30000    90.00000   360.00000     2.97770    90.00000   360.00000     2.97770
    20.40000    90.00000   360.00000     2.97782    90.00000   360.00000     2.97782
    20.50000    90.00000   360.00000     2.97793    90.00000   360.00000     2.97793
    20.60000    90.00000   360.00000     2.97804    90.00000   360.00000     2.97804
    20.70000    90.00000   360.00000     2.97816    90.00000   360.00000     2.97816
    20.80000    90.00000   360.00000     2.97827    90.00000   360.00000     2.97827
    20.90000    90.00000   360.00000     2.97838    90.00000   360.00000     2.97838
    21.00000    90.00000   360.00000     2.97850    90.00000   360.00000     2.97850
    21.10000    90.00000   360.00000     2.97861    90.00000   360.00000     2.97861
    21.20000    90.00000   360.00000     2.97872    90.00000   360.00000     2.97872
    21.30000    90.00000   360.00000     2.97883    90.00000   360.00000     2.97883
    21.40000    90.00000   360.00000     2.97895    90.00000   360.00000     2.97895
    21.50000    90.00000   360.00000     2.97906    90.00000   360.00000     2.97906
    21.60000    90.00000   360.00000     2.97917    90.00000   360.00000     2.97917
    21.70000    90.00000   360.00000     2.97929    90.00000   360.00000     2.97929
    21.80000    90.00000   360.00000     2.97940    90.00000   360.00000     2.97940
    21.90000    90.00000   360.00000     2.97951    90.00000   360.00000     2.97951
    22.00000    90.00000   360.00000     2.97962    90.00000   360.00000     2.97962
    22.10000    90.00000   360.00000     2.97974    90.00000   360.00000     2.97974
    22.20000    90.00000   360.00000     2.97985    90.00000   360.00000     2.97985
    22.30000    90.00000   360.00000     2.97996    90.00000   360.00000     2.97996
    22.40000    90.00000   360.00000     2.98007    90.00000   360.00000     2.98007
    22.50000    90.00000   360.00000     2.98019    90.00000   360.00000     2.98019
    22.60000    90.00000   360.00000     2.98030    90.00000   360.00000     2.98030
    22.70000    90.00000   360.00000     2.98041    90.00000   360.00000     2.98041
    22.80000    90.00000   360.00000     2.98053    90.00000   360.00000     2.98053
    22.90000    90.00000   360.00000     2.98064    90.00000   360.00000     2.98064
    23.00000    90.00000   360.00000     2.98075    90.00000   360.00000     2.98075
    23.10000    90.00000   360.00000     2.98086    90.00000   360.00000     2.98086
    23.20000    90.00000   360.00000     2.98097    90.00000   360.00000     2.98097
    23.30000    90.00000   360.00000     2.98109    90.00000   360.00000     2.98109
    23.40000    90.00000   360.00000     2.98120    90.00000   360.00000     2.98120
    23.50000    90.00000   360.00000     2.98131    90.00000   360.00000     2.98131
    23.60000    90.00000   360.00000     2.98142    90.00000   360.00000     2.98142
    23.70000    90.00000   360.00000     2.98154    90.00000   360.00000     2.98154
    23.80000    90.00000   360.00000     2.98165    90.00000   360.00000     2.98165
    23.90000    90.00000   360.00000     2.98176    90.00000   360.00000     2.98176
    24.00000    90.00000   360.00000     2.98187    90.00000   360.00000     2.98187
    24.10000    90.00000   360.00000     2.98198    90.00000   360.00000     2.98198
    24.20000    90.00000   360.00000     2.98210    90.00000   360.00000     2.98210
    24.30000    90.00000   360.00000     2.98221    90.00000   360.00000     2.98221
    24.40000    90.00000   360.00000     2.98232    90.00000   360.00000     2.98232
    24.50000    90.00000   360.00000     2.98243    90.00000   360.00000     2.98243
    24.60000    90.00000   360.00000     2.98254    90.00000   360.00000     2.98254
    24.70000    90.00000   360.00000     2.98266    90.00000   360.00000     2.98266
    24.80000    90.00000   360.00000     2.98277    90.00000   360.00000     2.98277
    24.90000    90.00000   360.00000     2.98288    90.00000   360.00000     2.98288
    25.00000    90.00000   360.00000     2.98299    90.00000   360.00000     2.98299
    25.10000    90.00000   360.00000     2.98310    90.00000   360.00000     2.98310
    25.20000    90.00000   360.00000     2.98322    90.00000   360.00000     2.98322
    25.30000    90.00000   360.00000     2.98333    90.00000   360.00000     2.98333
    25.40000    90.00000   360.00000     2.98344    90.00000   360.00000     2.98344
    25.50000    90.00000   360.00000     2.98355    90.00000   360.00000     2.98355
    25.60000    90.00000   360.00000     2.98366    90.00000   360.00000     2.98366
    25.70000    90.00000   360.00000     2.98377    90.00000   360.00000     2.98377
    25.80000    90.00000   360.00000     2.98388    90.00000   360.00000     2.98388
    25.90000    90.00000   360.00000     2.98400    90.00000   360.00000     2.98400
    26.00000    90.00000   360.00000     2.98411    90.00000   360.00000     2.98411
    26.10000    90.00000   360.00000     2.98422    90.00000   360.00000     2.98422
    26.20000    90.00000   360.00000     2.98433    90.00000   360.00000     2.98433
    26.30000    90.00000   360.00000     2.98444    90.00000   360.00000     2.98444
    26.40000    90.00000   360.00000     2.98455    90.00000   360.00000     2.98455
    26.50000    90.00000   360.00000     2.98466    90.00000   360.00000     2.98466
    26.60000    90.00000   360.00000     2.98478    90.00000   360.00000     2.98478
    26.70000    90.00000   360.00000     2.98489    90.00000   360.00000     2.98489
    26.80000    90.00000   360.00000     2.98500    90.00000   360.00000     2.98500
    26.90000    90.00000   360.00000     2.98511    90.00000   360.00000     2.98511
    27.00000    90.00000   360.00000     2.98522    90.00000   360.00000     2.98522
    27.10000    90.00000   360.00000     2.98533    90.00000   360.00000     2.98533
    27.20000    90.00000   360.00000     2.98544    90.00000   360.00000     2.98544
    27.30000    90.00000   360.00000     2.98555    90.00000   360.00000     2.98555
    27.40000    90.00000   360.00000     2.98566    90.00000   360.00000     2.98566
    27.50000    90.00000   360.00000     2.98578    90.00000   360.00000     2.98578
    27.60000    90.00000   360.00000     2.98589    90.00000   360.00000     2.98589
    27.70000    90.00000   360.00000     2.98600    90.00000   360.00000     2.98600
    27.80000    90.00000   360.00000     2.98611    90.00000   360.00000     2.98611
    27.90000    90.00000   360.00000     2.98622    90.00000   360.00000     2.98622
    28.00000    90.00000   360.00000     2.98633    90.00000   360.00000     2.98633
    28.10000    90.00000   360.00000     2.98644    90.00000   360.00000     2.98644
    28.20000    90.00000   360.00000     2.98655    90.00000   360.00000     2.98655
    28.30000    90.00000   360.00000     2.98666    90.00000   360.00000     2.98666
    28.40000    90.00000   360.00000     2.98677    90.00000   360.00000     2.98677
    28.50000    90.00000   360.00000     2.98688    90.00000   360.00000     2.98688
    28.60000    90.00000   360.00000     2.98699    90.00000   360.00000     2.98699
    28.70000    90.00000   360.00000     2.98710    90.00000   360.00000     2.98710
    28.80000    90.00000   360.00000     2.98722    90.00000   360.00000     2.98722
    28.90000    90.00000   360.00000     2.98733    90.00000   360.00000     2.98733
    29.00000    90.00000   360.00000     2.98744    90.00000   360.00000     2.98744
    29.10000    90.00000   360.00000     2.98755    90.00000   360.00000     2.98755
    29.20000    90.00000   360.00000     2.98766    90.00000   360.00000     2.98766
    29.30000    90.00000   360.00000     2.98777    90.00000   360.00000     2.98777
    29.40000    90.00000   360.00000     2.98788    90.00000   360.00000     2.98788
    29.50000    90.00000   360.00000     2.98799    90.00000   360.00000     2.98799
    29.60000    90.00000   360.00000     2.98810    90.00000   360.00000     2.98810
    29.70000    90.00000   360.00000     2.98821    90.00000   360.00000     2.98821
    29.80000    90.00000   360.00000     2.98832    90.00000   360.00000     2.98832
    29.90000    90.00000   360.00000     2.98843    90.00000   360.00000     2.98843
    30.00000    90.00000   360.00000     2.98854    90.00000   360.00000     2.98854
    30.10000    90.00000   360.00000     2.98865    90.00000   360.00000     2.98865
    30.20000    90.00000   360.00000     2.98876    90.00000   360.00000     2.98876
    30.30000    90.00000   360.00000     2.98887    90.00000   360.00000     2.98887
    30.40000    90.00000   360.00000     2.98898    90.00000   360.00000     2.98898
    30.50000    90.00000   360.00000     2.98909    90.00000   360.00000     2.98909
    30.60000    90.00000   360.00000     2.98920    90.00000   360.00000     2.98920
    30.70000    90.00000   360.00000     2.98931    90.00000   360.00000     2.98931
    30.80000    90.00000   360.00000     2.98942    90.00000   360.00000     2.98942
    30.90000    90.00000   360.00000     2.98953    90.00000   360.00000     2.98953
    31.00000    90.00000   360.00000     2.98964    90.00000   360.00000     2.98964
    31.10000    90.00000   360.00000     2.98975    90.00000   360.00000     2.98975
    31.20000    90.00000   360.00000     2.98986    90.00000   360.00000     2.98986
    31.30000    90.00000   360.00000     2.98997    90.00000   360.00000     2.98997
    31.40000    90.00000   360.00000     2.99008    90.00000   360.00000     2.99008
    31.50000    90.00000   360.00000     2.99019    90.00000   360.00000     2.99019
    31.60000    90.00000   360.00000     2.99030    90.00000   360.00000     2.99030
    31.70000    90.00000   360.00000     2.99041    90.00000   360.00000     2.99041
    31.80000    90.00000   360.00000     2.99052    90.00000   360.00000     2.99052
    31.90000    90.00000   360.00000     2.99063    90.00000   360.00000     2.99063
    32.00000    90.00000   360.00000     2.99074    90.00000   360.00000     2.99074
    32.10000    90.00000   360.00000     2.99085    90.00000   360.00000     2.99085
    32.20000    90.00000   360.00000     2.99096    90.00000   360.00000     2.99096
    32.30000    90.00000   360.00000     2.99106    90.00000   360.00000     2.99106
    32.40000    90.00000   360.00000     2.99117    90.00000   360.00000     2.99117
    32.50000    90.00000   360.00000     2.99128    90.00000   360.00000     2.99128
    32.60000    90.00000   360.00000     2.99139    90.00000   360.00000     2.99139
    32.70000    90.00000   360.00000     2.99150    90.00000   360.00000     2.99150
    32.80000    90.00000   360.00000     2.99161    90.00000   360.00000     2.99161
    32.90000    90.00000   360.00000     2.99172    90.00000   360.00000     2.99172
    33.00000    90.00000   360.00000     2.99183    90.00000   360.00000     2.99183
    33.10000    90.00000   360.00000     2.99194    90.00000   360.00000     2.99194
    33.20000    90.00000   360.00000     2.99205    90.00000   360.00000     2.99205
    33.30000    90.00000   360.00000     2.99216    90.00000   360.00000     2.99216
    33.40000    90.00000   360.00000     2.99227    90.00000   360.00000     2.99227
    33.50000    90.00000   360.00000     2.99238    90.00000   360.00000     2.99238
    33.60000    90.00000   360.00000     2.99248    90.00000   360.00000     2.99248
    33.70000    90.00000   360.00000     2.99259    90.00000   360.00000     2.99259
    33.80000    90.00000   360.00000     2.99270    90.00000   360.00000     2.99270
    33.90000    90.00000   360.00000     2.99281    90.00000   360.00000     2.99281
    34.00000    90.00000   360.00000     2.99292    90.00000   360.00000     2.99292
    34.10000    90.00000   360.00000     2.99303    90.00000   360.00000     2.99303
    34.20000    90.00000   360.00000     2.99314    90.00000   360.00000     2.99314
    34.30000    90.00000   360.00000     2.99325    90.00000   360.00000     2.99325
    34.40000    90.00000   360.00000     2.99336    90.00000   360.00000     2.99336
    34.50000    90.00000   360.00000     2.99346    90.00000   360.00000     2.99346
    34.60000    90.00000   360.00000     2.99357    90.00000   360.00000     2.99357
    34.70000    90.00000   360.00000     2.99368    90.00000   360.00000     2.99368
    34.80000    90.00000   360.00000     2.99379    90.00000   360.00000     2.99379
    34.90000    90.00000   360.00000     2.99390    90.00000   360.00000     2.99390
    35.00000    90.00000   360.00000     2.99401    90.00000   360.00000     2.99401
    35.10000    90.00000   360.00000     2.99412    90.00000   360.00000     2.99412
    35.20000    90.00000   360.00000     2.99422    90.00000   360.00000     2.99422
    35.30000    90.00000   360.00000     2.99433    90.00000   360.00000     2.99433
    35.40000    90.00000   360.00000     2.99444    90.00000   360.00000     2.99444
    35.50000    90.00000   360.00000     2.99455    90.00000   360.00000     2.99455
    35.60000    90.00000   360.00000     2.99466    90.00000   360.00000     2.99466
    35.70000    90.00000   360.00000     2.99477    90.00000   360.00000     2.99477
    35.80000    90.00000   360.00000     2.99487    90.00000   360.00000     2.99487
    35.90000    90.00000   360.00000     2.99498    90.00000   360.00000     2.99498
    36.00000    90.00000   360.00000     2.99509    90.00000   360.00000     2.99509
    36.10000    90.00000   360.00000     2.99520    90.00000   360.00000     2.99520
    36.20000    90.00000   360.00000     2.99531    90.00000   360.00000     2.99531
    36.30000    90.00000   360.00000     2.99542    90.00000   360.00000     2.99542
    36.40000    90.00000   360.00000     2.99552    90.00000   360.00000     2.99552
    36.50000    90.00000   360.00000     2.99563    90.00000   360.00000     2.99563
    36.60000    90.00000   360.00000     2.99574    90.00000   360.00000     2.99574
    36.70000    90.00000   360.00000     2.99585    90.00000   360.00000     2.99585
    36.80000    90.00000   360.00000     2.99596    90.00000   360.00000     2.99596
    36.90000    90.00000   360.00000     2.99606    90.00000   360.00000     2.99606
    37.00000    90.00000   360.00000     2.99617    90.00000   360.00000     2.99617
    37.10000    90.00000   360.00000     2.99628    90.00000   360.00000     2.99628
    37.20000    90.00000   360.00000     2.99639    90.00000   360.00000     2.99639
    37.30000    90.00000   360.00000     2.99650    90.00000   360.00000     2.99650
    37.40000    90.00000   360.00000     2.99660    90.00000   360.00000     2.99660
    37.50000    90.00000   360.00000     2.99671    90.00000   360.00000     2.99671
    37.60000    90.00000   360.00000     2.99682    90.00000   360.00000     2.99682
    37.70000    90.00000   360.00000     2.99693    90.00000   360.00000     2.99693
    37.80000    90.00000   360.00000     2.99703    90.00000   360.00000     2.99703
    37.90000    90.00000   360.00000     2.99714    90.00000   360.00000     2.99714
    38.00000    90.00000   360.00000     2.99725    90.00000   360.00000     2.99725
    38.10000    90.00000   360.00000     2.99736    90.00000   360.00000     2.99736
    38.20000    90.00000   360.00000     2.99746    90.00000   360.00000     2.99746
    38.30000    90.00000   360.00000     2.99757    90.00000   360.00000     2.99757
    38.40000    90.00000   360.00000     2.99768    90.00000   360.00000     2.99768
    38.50000    90.00000   360.00000     2.99779    90.00000   360.00000     2.99779
    38.60000    90.00000   360.00000     2.99789    90.00000   360.00000     2.99789
    38.70000    90.00000   360.00000     2.99800    90.00000   360.00000     2.99800
    38.80000    90.00000   360.00000     2.99811    90.00000   360.00000     2.99811
    38.90000    90.00000   360.00000     2.99822    90.00000   360.00000     2.99822
    39.00000    90.00000   360.00000     2.99832    90.00000   360.00000     2.99832
    39.10000    90.00000   360.00000     2.99843    90.00000   360.00000     2.99843
    39.20000    90.00000   360.00000     2.99854    90.00000   360.00000     2.99854
    39.30000    90.00000   360.00000     2.99865    90.00000   360.00000     2.99865
    39.40000    90.00000   360.00000     2.99875    90.00000   360.00000     2.99875
    39.50000    90.00000   360.00000     2.99886    90.00000   360.00000     2.99886
    39.60000    90.00000   360.00000     2.99897    90.00000   360.00000     2.99897
    39.70000    90.00000   360.00000     2.99907    90.00000   360.00000     2.99907
    39.80000    90.00000   360.00000     2.99918    90.00000   360.00000     2.99918
    39.90000    90.00000   360.00000     2.99929    90.00000   360.00000     2.99929
    40.00000    90.00000   360.00000     2.99939    90.00000   360.00000     2.99939
