 # applied field (T), theta (degree), phi (degree), abs [muB/unitcell], abs [T]
       0.00000000       0.00000000       0.00000000      52.23298219       1.81889681
       0.10000000       0.00000000       0.00000000      52.23302259       1.81889822
       0.20000000       0.00000000       0.00000000      52.23306300       1.81889962
       0.30000000       0.00000000       0.00000000      52.23310342       1.81890103
       0.40000000       0.00000000       0.00000000      52.23314384       1.81890244
       0.50000000       0.00000000       0.00000000      52.23318426       1.81890385
       0.60000000       0.00000000       0.00000000      52.23322469       1.81890525
       0.70000000       0.00000000       0.00000000      52.23326513       1.81890666
       0.80000000       0.00000000       0.00000000      52.23330556       1.81890807
       0.90000000       0.00000000       0.00000000      52.23334601       1.81890948
       1.00000000       0.00000000       0.00000000      52.23338646       1.81891089
       1.10000000       0.00000000       0.00000000      52.23342691       1.81891230
       1.20000000       0.00000000       0.00000000      52.23346737       1.81891371
       1.30000000       0.00000000       0.00000000      52.23350784       1.81891511
       1.40000000       0.00000000       0.00000000      52.23354831       1.81891652
       1.50000000       0.00000000       0.00000000      52.23358878       1.81891793
       1.60000000       0.00000000       0.00000000      52.23362926       1.81891934
       1.70000000       0.00000000       0.00000000      52.23366974       1.81892075
       1.80000000       0.00000000       0.00000000      52.23371023       1.81892216
       1.90000000       0.00000000       0.00000000      52.23375073       1.81892357
       2.00000000       0.00000000       0.00000000      52.23379123       1.81892498
       2.10000000       0.00000000       0.00000000      52.23383173       1.81892639
       2.20000000       0.00000000       0.00000000      52.23387224       1.81892780
       2.30000000       0.00000000       0.00000000      52.23391276       1.81892922
       2.40000000       0.00000000       0.00000000      52.23395327       1.81893063
       2.50000000       0.00000000       0.00000000      52.23399380       1.81893204
       2.60000000       0.00000000       0.00000000      52.23403433       1.81893345
       2.70000000       0.00000000       0.00000000      52.23407486       1.81893486
       2.80000000       0.00000000       0.00000000      52.23411540       1.81893627
       2.90000000       0.00000000       0.00000000      52.23415595       1.81893768
       3.00000000       0.00000000       0.00000000      52.23419650       1.81893910
       3.10000000       0.00000000       0.00000000      52.23423705       1.81894051
       3.20000000       0.00000000       0.00000000      52.23427761       1.81894192
       3.30000000       0.00000000       0.00000000      52.23431818       1.81894333
       3.40000000       0.00000000       0.00000000      52.23435875       1.81894475
       3.50000000       0.00000000       0.00000000      52.23439932       1.81894616
       3.60000000       0.00000000       0.00000000      52.23443990       1.81894757
       3.70000000       0.00000000       0.00000000      52.23448049       1.81894899
       3.80000000       0.00000000       0.00000000      52.23452108       1.81895040
       3.90000000       0.00000000       0.00000000      52.23456167       1.81895181
       4.00000000       0.00000000       0.00000000      52.23460227       1.81895323
       4.10000000       0.00000000       0.00000000      52.23464288       1.81895464
       4.20000000       0.00000000       0.00000000      52.23468349       1.81895605
       4.30000000       0.00000000       0.00000000      52.23472410       1.81895747
       4.40000000       0.00000000       0.00000000      52.23476472       1.81895888
       4.50000000       0.00000000       0.00000000      52.23480535       1.81896030
       4.60000000       0.00000000       0.00000000      52.23484598       1.81896171
       4.70000000       0.00000000       0.00000000      52.23488661       1.81896313
       4.80000000       0.00000000       0.00000000      52.23492725       1.81896454
       4.90000000       0.00000000       0.00000000      52.23496790       1.81896596
       5.00000000       0.00000000       0.00000000      52.23500855       1.81896737
       5.10000000       0.00000000       0.00000000      52.23504920       1.81896879
       5.20000000       0.00000000       0.00000000      52.23508986       1.81897021
       5.30000000       0.00000000       0.00000000      52.23513053       1.81897162
       5.40000000       0.00000000       0.00000000      52.23517120       1.81897304
       5.50000000       0.00000000       0.00000000      52.23521188       1.81897445
       5.60000000       0.00000000       0.00000000      52.23525256       1.81897587
       5.70000000       0.00000000       0.00000000      52.23529324       1.81897729
       5.80000000       0.00000000       0.00000000      52.23533393       1.81897870
       5.90000000       0.00000000       0.00000000      52.23537463       1.81898012
       6.00000000       0.00000000       0.00000000      52.23541533       1.81898154
       6.10000000       0.00000000       0.00000000      52.23545604       1.81898296
       6.20000000       0.00000000       0.00000000      52.23549675       1.81898437
       6.30000000       0.00000000       0.00000000      52.23553746       1.81898579
       6.40000000       0.00000000       0.00000000      52.23557818       1.81898721
       6.50000000       0.00000000       0.00000000      52.23561891       1.81898863
       6.60000000       0.00000000       0.00000000      52.23565964       1.81899005
       6.70000000       0.00000000       0.00000000      52.23570038       1.81899147
       6.80000000       0.00000000       0.00000000      52.23574112       1.81899288
       6.90000000       0.00000000       0.00000000      52.23578187       1.81899430
       7.00000000       0.00000000       0.00000000      52.23582262       1.81899572
       7.10000000       0.00000000       0.00000000      52.23586337       1.81899714
       7.20000000       0.00000000       0.00000000      52.23590414       1.81899856
       7.30000000       0.00000000       0.00000000      52.23594490       1.81899998
       7.40000000       0.00000000       0.00000000      52.23598567       1.81900140
       7.50000000       0.00000000       0.00000000      52.23602645       1.81900282
       7.60000000       0.00000000       0.00000000      52.23606723       1.81900424
       7.70000000       0.00000000       0.00000000      52.23610802       1.81900566
       7.80000000       0.00000000       0.00000000      52.23614881       1.81900708
       7.90000000       0.00000000       0.00000000      52.23618961       1.81900850
       8.00000000       0.00000000       0.00000000      52.23623041       1.81900992
       8.10000000       0.00000000       0.00000000      52.23627122       1.81901134
       8.20000000       0.00000000       0.00000000      52.23631203       1.81901276
       8.30000000       0.00000000       0.00000000      52.23635285       1.81901419
       8.40000000       0.00000000       0.00000000      52.23639367       1.81901561
       8.50000000       0.00000000       0.00000000      52.23643450       1.81901703
       8.60000000       0.00000000       0.00000000      52.23647533       1.81901845
       8.70000000       0.00000000       0.00000000      52.23651617       1.81901987
       8.80000000       0.00000000       0.00000000      52.23655701       1.81902130
       8.90000000       0.00000000       0.00000000      52.23659786       1.81902272
       9.00000000       0.00000000       0.00000000      52.23663871       1.81902414
       9.10000000       0.00000000       0.00000000      52.23667957       1.81902556
       9.20000000       0.00000000       0.00000000      52.23672043       1.81902699
       9.30000000       0.00000000       0.00000000      52.23676130       1.81902841
       9.40000000       0.00000000       0.00000000      52.23680217       1.81902983
       9.50000000       0.00000000       0.00000000      52.23684305       1.81903126
       9.60000000       0.00000000       0.00000000      52.23688394       1.81903268
       9.70000000       0.00000000       0.00000000      52.23692482       1.81903410
       9.80000000       0.00000000       0.00000000      52.23696572       1.81903553
       9.90000000       0.00000000       0.00000000      52.23700662       1.81903695
      10.00000000       0.00000000       0.00000000      52.23704752       1.81903838
      10.10000000       0.00000000       0.00000000      52.23708843       1.81903980
      10.20000000       0.00000000       0.00000000      52.23712934       1.81904123
      10.30000000       0.00000000       0.00000000      52.23717026       1.81904265
      10.40000000       0.00000000       0.00000000      52.23721119       1.81904408
      10.50000000       0.00000000       0.00000000      52.23725212       1.81904550
      10.60000000       0.00000000       0.00000000      52.23729305       1.81904693
      10.70000000       0.00000000       0.00000000      52.23733399       1.81904835
      10.80000000       0.00000000       0.00000000      52.23737493       1.81904978
      10.90000000       0.00000000       0.00000000      52.23741588       1.81905120
      11.00000000       0.00000000       0.00000000      52.23745684       1.81905263
      11.10000000       0.00000000       0.00000000      52.23749780       1.81905406
      11.20000000       0.00000000       0.00000000      52.23753876       1.81905548
      11.30000000       0.00000000       0.00000000      52.23757973       1.81905691
      11.40000000       0.00000000       0.00000000      52.23762071       1.81905834
      11.50000000       0.00000000       0.00000000      52.23766169       1.81905976
      11.60000000       0.00000000       0.00000000      52.23770267       1.81906119
      11.70000000       0.00000000       0.00000000      52.23774366       1.81906262
      11.80000000       0.00000000       0.00000000      52.23778466       1.81906405
      11.90000000       0.00000000       0.00000000      52.23782566       1.81906547
      12.00000000       0.00000000       0.00000000      52.23786666       1.81906690
      12.10000000       0.00000000       0.00000000      52.23790768       1.81906833
      12.20000000       0.00000000       0.00000000      52.23794869       1.81906976
      12.30000000       0.00000000       0.00000000      52.23798971       1.81907119
      12.40000000       0.00000000       0.00000000      52.23803074       1.81907261
      12.50000000       0.00000000       0.00000000      52.23807177       1.81907404
      12.60000000       0.00000000       0.00000000      52.23811281       1.81907547
      12.70000000       0.00000000       0.00000000      52.23815385       1.81907690
      12.80000000       0.00000000       0.00000000      52.23819489       1.81907833
      12.90000000       0.00000000       0.00000000      52.23823595       1.81907976
      13.00000000       0.00000000       0.00000000      52.23827700       1.81908119
      13.10000000       0.00000000       0.00000000      52.23831806       1.81908262
      13.20000000       0.00000000       0.00000000      52.23835913       1.81908405
      13.30000000       0.00000000       0.00000000      52.23840020       1.81908548
      13.40000000       0.00000000       0.00000000      52.23844128       1.81908691
      13.50000000       0.00000000       0.00000000      52.23848236       1.81908834
      13.60000000       0.00000000       0.00000000      52.23852345       1.81908977
      13.70000000       0.00000000       0.00000000      52.23856454       1.81909120
      13.80000000       0.00000000       0.00000000      52.23860564       1.81909263
      13.90000000       0.00000000       0.00000000      52.23864674       1.81909407
      14.00000000       0.00000000       0.00000000      52.23868785       1.81909550
      14.10000000       0.00000000       0.00000000      52.23872896       1.81909693
      14.20000000       0.00000000       0.00000000      52.23877008       1.81909836
      14.30000000       0.00000000       0.00000000      52.23881121       1.81909979
      14.40000000       0.00000000       0.00000000      52.23885233       1.81910122
      14.50000000       0.00000000       0.00000000      52.23889347       1.81910266
      14.60000000       0.00000000       0.00000000      52.23893461       1.81910409
      14.70000000       0.00000000       0.00000000      52.23897575       1.81910552
      14.80000000       0.00000000       0.00000000      52.23901690       1.81910696
      14.90000000       0.00000000       0.00000000      52.23905805       1.81910839
      15.00000000       0.00000000       0.00000000      52.23909921       1.81910982
      15.10000000       0.00000000       0.00000000      52.23914038       1.81911126
      15.20000000       0.00000000       0.00000000      52.23918155       1.81911269
      15.30000000       0.00000000       0.00000000      52.23922272       1.81911412
      15.40000000       0.00000000       0.00000000      52.23926390       1.81911556
      15.50000000       0.00000000       0.00000000      52.23930509       1.81911699
      15.60000000       0.00000000       0.00000000      52.23934628       1.81911843
      15.70000000       0.00000000       0.00000000      52.23938747       1.81911986
      15.80000000       0.00000000       0.00000000      52.23942867       1.81912129
      15.90000000       0.00000000       0.00000000      52.23946988       1.81912273
      16.00000000       0.00000000       0.00000000      52.23951109       1.81912416
      16.10000000       0.00000000       0.00000000      52.23955230       1.81912560
      16.20000000       0.00000000       0.00000000      52.23959352       1.81912704
      16.30000000       0.00000000       0.00000000      52.23963475       1.81912847
      16.40000000       0.00000000       0.00000000      52.23967598       1.81912991
      16.50000000       0.00000000       0.00000000      52.23971722       1.81913134
      16.60000000       0.00000000       0.00000000      52.23975846       1.81913278
      16.70000000       0.00000000       0.00000000      52.23979971       1.81913422
      16.80000000       0.00000000       0.00000000      52.23984096       1.81913565
      16.90000000       0.00000000       0.00000000      52.23988221       1.81913709
      17.00000000       0.00000000       0.00000000      52.23992348       1.81913853
      17.10000000       0.00000000       0.00000000      52.23996474       1.81913996
      17.20000000       0.00000000       0.00000000      52.24000602       1.81914140
      17.30000000       0.00000000       0.00000000      52.24004729       1.81914284
      17.40000000       0.00000000       0.00000000      52.24008858       1.81914427
      17.50000000       0.00000000       0.00000000      52.24012986       1.81914571
      17.60000000       0.00000000       0.00000000      52.24017116       1.81914715
      17.70000000       0.00000000       0.00000000      52.24021245       1.81914859
      17.80000000       0.00000000       0.00000000      52.24025376       1.81915003
      17.90000000       0.00000000       0.00000000      52.24029507       1.81915146
      18.00000000       0.00000000       0.00000000      52.24033638       1.81915290
      18.10000000       0.00000000       0.00000000      52.24037770       1.81915434
      18.20000000       0.00000000       0.00000000      52.24041902       1.81915578
      18.30000000       0.00000000       0.00000000      52.24046035       1.81915722
      18.40000000       0.00000000       0.00000000      52.24050169       1.81915866
      18.50000000       0.00000000       0.00000000      52.24054302       1.81916010
      18.60000000       0.00000000       0.00000000      52.24058437       1.81916154
      18.70000000       0.00000000       0.00000000      52.24062572       1.81916298
      18.80000000       0.00000000       0.00000000      52.24066707       1.81916442
      18.90000000       0.00000000       0.00000000      52.24070843       1.81916586
      19.00000000       0.00000000       0.00000000      52.24074980       1.81916730
      19.10000000       0.00000000       0.00000000      52.24079117       1.81916874
      19.20000000       0.00000000       0.00000000      52.24083254       1.81917018
      19.30000000       0.00000000       0.00000000      52.24087393       1.81917162
      19.40000000       0.00000000       0.00000000      52.24091531       1.81917306
      19.50000000       0.00000000       0.00000000      52.24095670       1.81917450
      19.60000000       0.00000000       0.00000000      52.24099810       1.81917595
      19.70000000       0.00000000       0.00000000      52.24103950       1.81917739
      19.80000000       0.00000000       0.00000000      52.24108091       1.81917883
      19.90000000       0.00000000       0.00000000      52.24112232       1.81918027
      20.00000000       0.00000000       0.00000000      52.24116374       1.81918171
      20.10000000       0.00000000       0.00000000      52.24120516       1.81918316
      20.20000000       0.00000000       0.00000000      52.24124658       1.81918460
      20.30000000       0.00000000       0.00000000      52.24128802       1.81918604
      20.40000000       0.00000000       0.00000000      52.24132945       1.81918749
      20.50000000       0.00000000       0.00000000      52.24137090       1.81918893
      20.60000000       0.00000000       0.00000000      52.24141235       1.81919037
      20.70000000       0.00000000       0.00000000      52.24145380       1.81919182
      20.80000000       0.00000000       0.00000000      52.24149526       1.81919326
      20.90000000       0.00000000       0.00000000      52.24153672       1.81919470
      21.00000000       0.00000000       0.00000000      52.24157819       1.81919615
      21.10000000       0.00000000       0.00000000      52.24161966       1.81919759
      21.20000000       0.00000000       0.00000000      52.24166114       1.81919904
      21.30000000       0.00000000       0.00000000      52.24170263       1.81920048
      21.40000000       0.00000000       0.00000000      52.24174412       1.81920192
      21.50000000       0.00000000       0.00000000      52.24178561       1.81920337
      21.60000000       0.00000000       0.00000000      52.24182711       1.81920481
      21.70000000       0.00000000       0.00000000      52.24186861       1.81920626
      21.80000000       0.00000000       0.00000000      52.24191012       1.81920771
      21.90000000       0.00000000       0.00000000      52.24195164       1.81920915
      22.00000000       0.00000000       0.00000000      52.24199316       1.81921060
      22.10000000       0.00000000       0.00000000      52.24203469       1.81921204
      22.20000000       0.00000000       0.00000000      52.24207622       1.81921349
      22.30000000       0.00000000       0.00000000      52.24211775       1.81921494
      22.40000000       0.00000000       0.00000000      52.24215929       1.81921638
      22.50000000       0.00000000       0.00000000      52.24220084       1.81921783
      22.60000000       0.00000000       0.00000000      52.24224239       1.81921928
      22.70000000       0.00000000       0.00000000      52.24228395       1.81922072
      22.80000000       0.00000000       0.00000000      52.24232551       1.81922217
      22.90000000       0.00000000       0.00000000      52.24236708       1.81922362
      23.00000000       0.00000000       0.00000000      52.24240865       1.81922507
      23.10000000       0.00000000       0.00000000      52.24245023       1.81922651
      23.20000000       0.00000000       0.00000000      52.24249181       1.81922796
      23.30000000       0.00000000       0.00000000      52.24253340       1.81922941
      23.40000000       0.00000000       0.00000000      52.24257499       1.81923086
      23.50000000       0.00000000       0.00000000      52.24261659       1.81923231
      23.60000000       0.00000000       0.00000000      52.24265820       1.81923376
      23.70000000       0.00000000       0.00000000      52.24269981       1.81923520
      23.80000000       0.00000000       0.00000000      52.24274142       1.81923665
      23.90000000       0.00000000       0.00000000      52.24278304       1.81923810
      24.00000000       0.00000000       0.00000000      52.24282466       1.81923955
      24.10000000       0.00000000       0.00000000      52.24286629       1.81924100
      24.20000000       0.00000000       0.00000000      52.24290793       1.81924245
      24.30000000       0.00000000       0.00000000      52.24294957       1.81924390
      24.40000000       0.00000000       0.00000000      52.24299121       1.81924535
      24.50000000       0.00000000       0.00000000      52.24303286       1.81924680
      24.60000000       0.00000000       0.00000000      52.24307452       1.81924825
      24.70000000       0.00000000       0.00000000      52.24311618       1.81924970
      24.80000000       0.00000000       0.00000000      52.24315785       1.81925115
      24.90000000       0.00000000       0.00000000      52.24319952       1.81925261
      25.00000000       0.00000000       0.00000000      52.24324120       1.81925406
      25.10000000       0.00000000       0.00000000      52.24328288       1.81925551
      25.20000000       0.00000000       0.00000000      52.24332457       1.81925696
      25.30000000       0.00000000       0.00000000      52.24336626       1.81925841
      25.40000000       0.00000000       0.00000000      52.24340796       1.81925986
      25.50000000       0.00000000       0.00000000      52.24344966       1.81926132
      25.60000000       0.00000000       0.00000000      52.24349137       1.81926277
      25.70000000       0.00000000       0.00000000      52.24353308       1.81926422
      25.80000000       0.00000000       0.00000000      52.24357480       1.81926567
      25.90000000       0.00000000       0.00000000      52.24361652       1.81926713
      26.00000000       0.00000000       0.00000000      52.24365825       1.81926858
      26.10000000       0.00000000       0.00000000      52.24369999       1.81927003
      26.20000000       0.00000000       0.00000000      52.24374172       1.81927149
      26.30000000       0.00000000       0.00000000      52.24378347       1.81927294
      26.40000000       0.00000000       0.00000000      52.24382522       1.81927439
      26.50000000       0.00000000       0.00000000      52.24386697       1.81927585
      26.60000000       0.00000000       0.00000000      52.24390873       1.81927730
      26.70000000       0.00000000       0.00000000      52.24395050       1.81927876
      26.80000000       0.00000000       0.00000000      52.24399227       1.81928021
      26.90000000       0.00000000       0.00000000      52.24403405       1.81928167
      27.00000000       0.00000000       0.00000000      52.24407583       1.81928312
      27.10000000       0.00000000       0.00000000      52.24411761       1.81928458
      27.20000000       0.00000000       0.00000000      52.24415941       1.81928603
      27.30000000       0.00000000       0.00000000      52.24420120       1.81928749
      27.40000000       0.00000000       0.00000000      52.24424301       1.81928894
      27.50000000       0.00000000       0.00000000      52.24428481       1.81929040
      27.60000000       0.00000000       0.00000000      52.24432663       1.81929185
      27.70000000       0.00000000       0.00000000      52.24436844       1.81929331
      27.80000000       0.00000000       0.00000000      52.24441027       1.81929477
      27.90000000       0.00000000       0.00000000      52.24445210       1.81929622
      28.00000000       0.00000000       0.00000000      52.24449393       1.81929768
      28.10000000       0.00000000       0.00000000      52.24453577       1.81929914
      28.20000000       0.00000000       0.00000000      52.24457761       1.81930059
      28.30000000       0.00000000       0.00000000      52.24461946       1.81930205
      28.40000000       0.00000000       0.00000000      52.24466132       1.81930351
      28.50000000       0.00000000       0.00000000      52.24470318       1.81930497
      28.60000000       0.00000000       0.00000000      52.24474504       1.81930643
      28.70000000       0.00000000       0.00000000      52.24478691       1.81930788
      28.80000000       0.00000000       0.00000000      52.24482879       1.81930934
      28.90000000       0.00000000       0.00000000      52.24487067       1.81931080
      29.00000000       0.00000000       0.00000000      52.24491256       1.81931226
      29.10000000       0.00000000       0.00000000      52.24495445       1.81931372
      29.20000000       0.00000000       0.00000000      52.24499634       1.81931518
      29.30000000       0.00000000       0.00000000      52.24503825       1.81931664
      29.40000000       0.00000000       0.00000000      52.24508015       1.81931809
      29.50000000       0.00000000       0.00000000      52.24512207       1.81931955
      29.60000000       0.00000000       0.00000000      52.24516398       1.81932101
      29.70000000       0.00000000       0.00000000      52.24520591       1.81932247
      29.80000000       0.00000000       0.00000000      52.24524783       1.81932393
      29.90000000       0.00000000       0.00000000      52.24528977       1.81932539
      30.00000000       0.00000000       0.00000000      52.24533171       1.81932685
      30.10000000       0.00000000       0.00000000      52.24537365       1.81932832
      30.20000000       0.00000000       0.00000000      52.24541560       1.81932978
      30.30000000       0.00000000       0.00000000      52.24545755       1.81933124
      30.40000000       0.00000000       0.00000000      52.24549951       1.81933270
      30.50000000       0.00000000       0.00000000      52.24554148       1.81933416
      30.60000000       0.00000000       0.00000000      52.24558345       1.81933562
      30.70000000       0.00000000       0.00000000      52.24562543       1.81933708
      30.80000000       0.00000000       0.00000000      52.24566741       1.81933854
      30.90000000       0.00000000       0.00000000      52.24570939       1.81934001
      31.00000000       0.00000000       0.00000000      52.24575138       1.81934147
      31.10000000       0.00000000       0.00000000      52.24579338       1.81934293
      31.20000000       0.00000000       0.00000000      52.24583538       1.81934439
      31.30000000       0.00000000       0.00000000      52.24587739       1.81934586
      31.40000000       0.00000000       0.00000000      52.24591940       1.81934732
      31.50000000       0.00000000       0.00000000      52.24596142       1.81934878
      31.60000000       0.00000000       0.00000000      52.24600344       1.81935025
      31.70000000       0.00000000       0.00000000      52.24604547       1.81935171
      31.80000000       0.00000000       0.00000000      52.24608751       1.81935317
      31.90000000       0.00000000       0.00000000      52.24612955       1.81935464
      32.00000000       0.00000000       0.00000000      52.24617159       1.81935610
      32.10000000       0.00000000       0.00000000      52.24621364       1.81935757
      32.20000000       0.00000000       0.00000000      52.24625569       1.81935903
      32.30000000       0.00000000       0.00000000      52.24629775       1.81936050
      32.40000000       0.00000000       0.00000000      52.24633982       1.81936196
      32.50000000       0.00000000       0.00000000      52.24638189       1.81936342
      32.60000000       0.00000000       0.00000000      52.24642397       1.81936489
      32.70000000       0.00000000       0.00000000      52.24646605       1.81936636
      32.80000000       0.00000000       0.00000000      52.24650813       1.81936782
      32.90000000       0.00000000       0.00000000      52.24655023       1.81936929
      33.00000000       0.00000000       0.00000000      52.24659232       1.81937075
      33.10000000       0.00000000       0.00000000      52.24663443       1.81937222
      33.20000000       0.00000000       0.00000000      52.24667653       1.81937369
      33.30000000       0.00000000       0.00000000      52.24671865       1.81937515
      33.40000000       0.00000000       0.00000000      52.24676077       1.81937662
      33.50000000       0.00000000       0.00000000      52.24680289       1.81937809
      33.60000000       0.00000000       0.00000000      52.24684502       1.81937955
      33.70000000       0.00000000       0.00000000      52.24688715       1.81938102
      33.80000000       0.00000000       0.00000000      52.24692929       1.81938249
      33.90000000       0.00000000       0.00000000      52.24697144       1.81938395
      34.00000000       0.00000000       0.00000000      52.24701359       1.81938542
      34.10000000       0.00000000       0.00000000      52.24705574       1.81938689
      34.20000000       0.00000000       0.00000000      52.24709790       1.81938836
      34.30000000       0.00000000       0.00000000      52.24714007       1.81938983
      34.40000000       0.00000000       0.00000000      52.24718224       1.81939130
      34.50000000       0.00000000       0.00000000      52.24722442       1.81939276
      34.60000000       0.00000000       0.00000000      52.24726660       1.81939423
      34.70000000       0.00000000       0.00000000      52.24730879       1.81939570
      34.80000000       0.00000000       0.00000000      52.24735098       1.81939717
      34.90000000       0.00000000       0.00000000      52.24739318       1.81939864
      35.00000000       0.00000000       0.00000000      52.24743538       1.81940011
      35.10000000       0.00000000       0.00000000      52.24747759       1.81940158
      35.20000000       0.00000000       0.00000000      52.24751980       1.81940305
      35.30000000       0.00000000       0.00000000      52.24756202       1.81940452
      35.40000000       0.00000000       0.00000000      52.24760424       1.81940599
      35.50000000       0.00000000       0.00000000      52.24764647       1.81940746
      35.60000000       0.00000000       0.00000000      52.24768871       1.81940893
      35.70000000       0.00000000       0.00000000      52.24773095       1.81941040
      35.80000000       0.00000000       0.00000000      52.24777320       1.81941187
      35.90000000       0.00000000       0.00000000      52.24781545       1.81941335
      36.00000000       0.00000000       0.00000000      52.24785770       1.81941482
      36.10000000       0.00000000       0.00000000      52.24789996       1.81941629
      36.20000000       0.00000000       0.00000000      52.24794223       1.81941776
      36.30000000       0.00000000       0.00000000      52.24798450       1.81941923
      36.40000000       0.00000000       0.00000000      52.24802678       1.81942070
      36.50000000       0.00000000       0.00000000      52.24806906       1.81942218
      36.60000000       0.00000000       0.00000000      52.24811135       1.81942365
      36.70000000       0.00000000       0.00000000      52.24815365       1.81942512
      36.80000000       0.00000000       0.00000000      52.24819594       1.81942660
      36.90000000       0.00000000       0.00000000      52.24823825       1.81942807
      37.00000000       0.00000000       0.00000000      52.24828056       1.81942954
      37.10000000       0.00000000       0.00000000      52.24832287       1.81943102
      37.20000000       0.00000000       0.00000000      52.24836519       1.81943249
      37.30000000       0.00000000       0.00000000      52.24840752       1.81943396
      37.40000000       0.00000000       0.00000000      52.24844985       1.81943544
      37.50000000       0.00000000       0.00000000      52.24849219       1.81943691
      37.60000000       0.00000000       0.00000000      52.24853453       1.81943839
      37.70000000       0.00000000       0.00000000      52.24857687       1.81943986
      37.80000000       0.00000000       0.00000000      52.24861923       1.81944134
      37.90000000       0.00000000       0.00000000      52.24866158       1.81944281
      38.00000000       0.00000000       0.00000000      52.24870395       1.81944429
      38.10000000       0.00000000       0.00000000      52.24874631       1.81944576
      38.20000000       0.00000000       0.00000000      52.24878869       1.81944724
      38.30000000       0.00000000       0.00000000      52.24883107       1.81944871
      38.40000000       0.00000000       0.00000000      52.24887345       1.81945019
      38.50000000       0.00000000       0.00000000      52.24891584       1.81945166
      38.60000000       0.00000000       0.00000000      52.24895824       1.81945314
      38.70000000       0.00000000       0.00000000      52.24900064       1.81945462
      38.80000000       0.00000000       0.00000000      52.24904304       1.81945609
      38.90000000       0.00000000       0.00000000      52.24908545       1.81945757
      39.00000000       0.00000000       0.00000000      52.24912787       1.81945905
      39.10000000       0.00000000       0.00000000      52.24917029       1.81946052
      39.20000000       0.00000000       0.00000000      52.24921272       1.81946200
      39.30000000       0.00000000       0.00000000      52.24925515       1.81946348
      39.40000000       0.00000000       0.00000000      52.24929759       1.81946496
      39.50000000       0.00000000       0.00000000      52.24934003       1.81946644
      39.60000000       0.00000000       0.00000000      52.24938248       1.81946791
      39.70000000       0.00000000       0.00000000      52.24942493       1.81946939
      39.80000000       0.00000000       0.00000000      52.24946739       1.81947087
      39.90000000       0.00000000       0.00000000      52.24950986       1.81947235
      40.00000000       0.00000000       0.00000000      52.24955233       1.81947383
