 # applied field (T), theta (degree), phi (degree), abs for RE 1-2
     0.00000    90.00000   225.43674     0.08874    90.00000   225.43674     0.08874
     0.10000    91.56924   224.56326     0.08876    91.56924   224.56326     0.08876
     0.20000    93.26818   224.56327     0.08884    93.26818   224.56327     0.08884
     0.30000    94.83126   224.56328     0.08897    94.83126   224.56328     0.08897
     0.40000    96.38847   224.56328     0.08914    96.38847   224.56328     0.08914
     0.50000    97.93798   225.43670     0.08937    97.93798   225.43670     0.08937
     0.60000    99.60704   225.43669     0.08966    99.60704   225.43669     0.08966
     0.70000   101.13491   224.56333     0.08998   101.13491   224.56333     0.08998
     0.80000   102.64987   224.56335     0.09035   102.64987   224.56335     0.09035
     0.90000   104.27592   225.00000     0.09079   104.27592   225.00000     0.09079
     1.00000   105.75923   225.00000     0.09125   105.75923   225.00000     0.09125
     1.10000   107.22529   225.00000     0.09175   107.22529   225.00000     0.09175
     1.20000   108.79380   225.00000     0.09234   108.79380   225.00000     0.09234
     1.30000   110.22022   225.00000     0.09292   110.22022   225.00000     0.09292
     1.40000   111.74338   224.55505     0.09359   111.74338   224.55505     0.09359
     1.50000   113.24141   225.44490     0.09431   113.24141   225.44490     0.09431
     1.60000   114.60008   225.44486     0.09500   114.60008   225.44486     0.09500
     1.70000   116.04735   224.55518     0.09579   116.04735   224.55518     0.09579
     1.80000   117.46731   225.00000     0.09662   117.46731   225.00000     0.09662
     1.90000   118.75234   225.00000     0.09741   118.75234   225.00000     0.09741
     2.00000   120.11844   225.45347     0.09830   120.11844   225.45347     0.09830
     2.10000   121.45626   224.54659     0.09922   121.45626   224.54659     0.09922
     2.20000   122.76566   224.54666     0.10017   122.76566   224.54666     0.10017
     2.30000   124.04671   225.00000     0.10115   124.04671   225.00000     0.10115
     2.40000   125.39550   225.00000     0.10222   125.39550   225.00000     0.10222
     2.50000   126.61785   224.53771     0.10324   126.61785   224.53771     0.10324
     2.60000   127.81245   224.53778     0.10428   127.81245   224.53778     0.10428
     2.70000   129.06917   225.00000     0.10542   129.06917   225.00000     0.10542
     2.80000   130.20716   225.00000     0.10649   130.20716   225.00000     0.10649
     2.90000   131.40378   225.47149     0.10766   131.40378   225.47149     0.10766
     3.00000   132.57031   225.00000     0.10885   132.57031   225.00000     0.10885
     3.10000   133.70725   225.00000     0.11004   133.70725   225.00000     0.11004
     3.20000   134.81532   224.51887     0.11124   134.81532   224.51887     0.11124
     3.30000   135.89544   225.00000     0.11245   135.89544   225.00000     0.11245
     3.40000   137.02309   225.00000     0.11376   137.02309   225.00000     0.11376
     3.50000   138.04740   224.50885     0.11497   138.04740   224.50885     0.11497
     3.60000   139.11723   225.00000     0.11628   139.11723   225.00000     0.11628
     3.70000   140.15844   224.49831     0.11759   140.15844   224.49831     0.11759
     3.80000   141.17224   225.00000     0.11889   141.17224   225.00000     0.11889
     3.90000   142.15945   225.00000     0.12019   142.15945   225.00000     0.12019
     4.00000   143.18482   224.48744     0.12157   143.18482   224.48744     0.12157
     4.10000   144.18233   225.00000     0.12294   144.18233   225.00000     0.12294
     4.20000   145.15289   224.47596     0.12429   145.15289   224.47596     0.12429
     4.30000   146.09784   225.00000     0.12564   146.09784   225.00000     0.12564
     4.40000   147.01803   224.46395     0.12697   147.01803   224.46395     0.12697
     4.50000   147.97040   224.45121     0.12836   147.97040   224.45121     0.12836
     4.60000   148.89738   225.00000     0.12974   148.89738   225.00000     0.12974
     4.70000   149.85271   224.43804     0.13117   149.85271   224.43804     0.13117
     4.80000   150.78225   225.00000     0.13258   150.78225   225.00000     0.13258
     4.90000   151.68714   225.00000     0.13396   151.68714   225.00000     0.13396
     5.00000   152.61721   225.59052     0.13539   152.61721   225.59052     0.13539
     5.10000   153.52272   225.00000     0.13679   153.52272   225.00000     0.13679
     5.20000   154.40487   225.00000     0.13814   154.40487   225.00000     0.13814
     5.30000   155.35462   225.00000     0.13961   155.35462   225.00000     0.13961
     5.40000   156.23535   224.36058     0.14096   156.23535   224.36058     0.14096
     5.50000   157.17947   224.34234     0.14241   157.17947   224.34234     0.14241
     5.60000   158.09900   225.67700     0.14380   158.09900   225.67700     0.14380
     5.70000   158.99555   224.30247     0.14514   158.99555   224.30247     0.14514
     5.80000   159.94917   225.71934     0.14655   159.94917   225.71934     0.14655
     5.90000   160.91719   224.25743     0.14795   160.91719   224.25743     0.14795
     6.00000   161.89850   224.23263     0.14933   161.89850   224.23263     0.14933
     6.10000   162.89225   225.00000     0.15070   162.89225   225.00000     0.15070
     6.20000   163.89771   225.00000     0.15203   163.89771   225.00000     0.15203
     6.30000   164.98335   224.11362     0.15341   164.98335   224.11362     0.15341
     6.40000   166.07685   225.00000     0.15473   166.07685   225.00000     0.15473
     6.50000   167.27673   225.00000     0.15610   167.27673   225.00000     0.15610
     6.60000   168.51281   225.00000     0.15740   168.51281   225.00000     0.15740
     6.70000   169.87794   225.00000     0.15870   169.87794   225.00000     0.15870
     6.80000   171.42670   223.54592     0.16001   171.42670   223.54592     0.16001
     6.90000   173.26972   223.19807     0.16130   173.26972   223.19807     0.16130
     7.00000   175.77240   225.00000     0.16257   175.77240   225.00000     0.16257
     7.10000   180.00000   360.00000     0.16336   180.00000   360.00000     0.16336
     7.20000   180.00000   360.00000     0.16321   180.00000   360.00000     0.16321
     7.30000   180.00000   360.00000     0.16306   180.00000   360.00000     0.16306
     7.40000   180.00000   180.00000     0.16292   180.00000   180.00000     0.16292
     7.50000   180.00000   360.00000     0.16277   180.00000   360.00000     0.16277
     7.60000   180.00000   180.00000     0.16262   180.00000   180.00000     0.16262
     7.70000   180.00000   360.00000     0.16247   180.00000   360.00000     0.16247
     7.80000   180.00000   360.00000     0.16233   180.00000   360.00000     0.16233
     7.90000   180.00000   180.00000     0.16218   180.00000   180.00000     0.16218
     8.00000   180.00000   180.00000     0.16203   180.00000   180.00000     0.16203
     8.10000   180.00000   180.00000     0.16189   180.00000   180.00000     0.16189
     8.20000   180.00000   180.00000     0.16174   180.00000   180.00000     0.16174
     8.30000   180.00000   360.00000     0.16159   180.00000   360.00000     0.16159
     8.40000   180.00000   360.00000     0.16144   180.00000   360.00000     0.16144
     8.50000   180.00000   180.00000     0.16130   180.00000   180.00000     0.16130
     8.60000   180.00000   180.00000     0.16115   180.00000   180.00000     0.16115
     8.70000   180.00000   360.00000     0.16100   180.00000   360.00000     0.16100
     8.80000   180.00000   180.00000     0.16086   180.00000   180.00000     0.16086
     8.90000   180.00000   180.00000     0.16071   180.00000   180.00000     0.16071
     9.00000   180.00000   360.00000     0.16056   180.00000   360.00000     0.16056
     9.10000   180.00000   180.00000     0.16042   180.00000   180.00000     0.16042
     9.20000   180.00000   360.00000     0.16027   180.00000   360.00000     0.16027
     9.30000   180.00000   180.00000     0.16012   180.00000   180.00000     0.16012
     9.40000   180.00000   360.00000     0.15998   180.00000   360.00000     0.15998
     9.50000   180.00000   180.00000     0.15983   180.00000   180.00000     0.15983
     9.60000   180.00000   360.00000     0.15968   180.00000   360.00000     0.15968
     9.70000   180.00000   180.00000     0.15954   180.00000   180.00000     0.15954
     9.80000   180.00000   360.00000     0.15939   180.00000   360.00000     0.15939
     9.90000   180.00000   180.00000     0.15924   180.00000   180.00000     0.15924
    10.00000   180.00000   360.00000     0.15909   180.00000   360.00000     0.15909
    10.10000   180.00000   360.00000     0.15895   180.00000   360.00000     0.15895
    10.20000   180.00000   180.00000     0.15880   180.00000   180.00000     0.15880
    10.30000   180.00000   360.00000     0.15865   180.00000   360.00000     0.15865
    10.40000   180.00000   360.00000     0.15851   180.00000   360.00000     0.15851
    10.50000   180.00000   360.00000     0.15836   180.00000   360.00000     0.15836
    10.60000   180.00000   360.00000     0.15821   180.00000   360.00000     0.15821
    10.70000   180.00000   180.00000     0.15807   180.00000   180.00000     0.15807
    10.80000   180.00000   180.00000     0.15792   180.00000   180.00000     0.15792
    10.90000   180.00000   180.00000     0.15777   180.00000   180.00000     0.15777
    11.00000   180.00000   180.00000     0.15763   180.00000   180.00000     0.15763
    11.10000   180.00000   180.00000     0.15748   180.00000   180.00000     0.15748
    11.20000   180.00000   360.00000     0.15733   180.00000   360.00000     0.15733
    11.30000   180.00000   360.00000     0.15719   180.00000   360.00000     0.15719
    11.40000   180.00000   180.00000     0.15704   180.00000   180.00000     0.15704
    11.50000   180.00000   360.00000     0.15689   180.00000   360.00000     0.15689
    11.60000   180.00000   180.00000     0.15675   180.00000   180.00000     0.15675
    11.70000   180.00000   360.00000     0.15660   180.00000   360.00000     0.15660
    11.80000   180.00000   360.00000     0.15645   180.00000   360.00000     0.15645
    11.90000   180.00000   360.00000     0.15631   180.00000   360.00000     0.15631
    12.00000   180.00000   180.00000     0.15616   180.00000   180.00000     0.15616
    12.10000   180.00000   180.00000     0.15601   180.00000   180.00000     0.15601
    12.20000   180.00000   360.00000     0.15587   180.00000   360.00000     0.15587
    12.30000   180.00000   360.00000     0.15572   180.00000   360.00000     0.15572
    12.40000   180.00000   180.00000     0.15558   180.00000   180.00000     0.15558
    12.50000   180.00000   180.00000     0.15543   180.00000   180.00000     0.15543
    12.60000   180.00000   180.00000     0.15528   180.00000   180.00000     0.15528
    12.70000   180.00000   360.00000     0.15514   180.00000   360.00000     0.15514
    12.80000   180.00000   180.00000     0.15499   180.00000   180.00000     0.15499
    12.90000   180.00000   360.00000     0.15484   180.00000   360.00000     0.15484
    13.00000   180.00000   180.00000     0.15470   180.00000   180.00000     0.15470
    13.10000   180.00000   360.00000     0.15455   180.00000   360.00000     0.15455
    13.20000   180.00000   360.00000     0.15440   180.00000   360.00000     0.15440
    13.30000   180.00000   360.00000     0.15426   180.00000   360.00000     0.15426
    13.40000   180.00000   360.00000     0.15411   180.00000   360.00000     0.15411
    13.50000   180.00000   360.00000     0.15396   180.00000   360.00000     0.15396
    13.60000   180.00000   360.00000     0.15382   180.00000   360.00000     0.15382
    13.70000   180.00000   180.00000     0.15367   180.00000   180.00000     0.15367
    13.80000   180.00000   180.00000     0.15352   180.00000   180.00000     0.15352
    13.90000   180.00000   360.00000     0.15338   180.00000   360.00000     0.15338
    14.00000   180.00000   360.00000     0.15323   180.00000   360.00000     0.15323
    14.10000   180.00000   360.00000     0.15309   180.00000   360.00000     0.15309
    14.20000   180.00000   180.00000     0.15294   180.00000   180.00000     0.15294
    14.30000   180.00000   360.00000     0.15279   180.00000   360.00000     0.15279
    14.40000   180.00000   180.00000     0.15265   180.00000   180.00000     0.15265
    14.50000   180.00000   180.00000     0.15250   180.00000   180.00000     0.15250
    14.60000   180.00000   180.00000     0.15235   180.00000   180.00000     0.15235
    14.70000   180.00000   360.00000     0.15221   180.00000   360.00000     0.15221
    14.80000   180.00000   180.00000     0.15206   180.00000   180.00000     0.15206
    14.90000   180.00000   180.00000     0.15192   180.00000   180.00000     0.15192
    15.00000   180.00000   360.00000     0.15177   180.00000   360.00000     0.15177
    15.10000   180.00000   360.00000     0.15162   180.00000   360.00000     0.15162
    15.20000   180.00000   180.00000     0.15148   180.00000   180.00000     0.15148
    15.30000   180.00000   360.00000     0.15133   180.00000   360.00000     0.15133
    15.40000   180.00000   360.00000     0.15118   180.00000   360.00000     0.15118
    15.50000   180.00000   360.00000     0.15104   180.00000   360.00000     0.15104
    15.60000   180.00000   180.00000     0.15089   180.00000   180.00000     0.15089
    15.70000   180.00000   360.00000     0.15075   180.00000   360.00000     0.15075
    15.80000   180.00000   180.00000     0.15060   180.00000   180.00000     0.15060
    15.90000   180.00000   360.00000     0.15045   180.00000   360.00000     0.15045
    16.00000   180.00000   180.00000     0.15031   180.00000   180.00000     0.15031
    16.10000   180.00000   360.00000     0.15016   180.00000   360.00000     0.15016
    16.20000   180.00000   180.00000     0.15001   180.00000   180.00000     0.15001
    16.30000   180.00000   180.00000     0.14987   180.00000   180.00000     0.14987
    16.40000   180.00000   360.00000     0.14972   180.00000   360.00000     0.14972
    16.50000   180.00000   180.00000     0.14958   180.00000   180.00000     0.14958
    16.60000   180.00000   360.00000     0.14943   180.00000   360.00000     0.14943
    16.70000   180.00000   360.00000     0.14928   180.00000   360.00000     0.14928
    16.80000   180.00000   180.00000     0.14914   180.00000   180.00000     0.14914
    16.90000   180.00000   180.00000     0.14899   180.00000   180.00000     0.14899
    17.00000   180.00000   180.00000     0.14885   180.00000   180.00000     0.14885
    17.10000   180.00000   180.00000     0.14870   180.00000   180.00000     0.14870
    17.20000   180.00000   180.00000     0.14855   180.00000   180.00000     0.14855
    17.30000   180.00000   360.00000     0.14841   180.00000   360.00000     0.14841
    17.40000   180.00000   180.00000     0.14826   180.00000   180.00000     0.14826
    17.50000   180.00000   180.00000     0.14812   180.00000   180.00000     0.14812
    17.60000   180.00000   360.00000     0.14797   180.00000   360.00000     0.14797
    17.70000   180.00000   180.00000     0.14782   180.00000   180.00000     0.14782
    17.80000   180.00000   180.00000     0.14768   180.00000   180.00000     0.14768
    17.90000   180.00000   180.00000     0.14753   180.00000   180.00000     0.14753
    18.00000   180.00000   360.00000     0.14739   180.00000   360.00000     0.14739
    18.10000   180.00000   180.00000     0.14724   180.00000   180.00000     0.14724
    18.20000   180.00000   360.00000     0.14709   180.00000   360.00000     0.14709
    18.30000   180.00000   180.00000     0.14695   180.00000   180.00000     0.14695
    18.40000   180.00000   180.00000     0.14680   180.00000   180.00000     0.14680
    18.50000   180.00000   360.00000     0.14666   180.00000   360.00000     0.14666
    18.60000   180.00000   360.00000     0.14651   180.00000   360.00000     0.14651
    18.70000   180.00000   180.00000     0.14637   180.00000   180.00000     0.14637
    18.80000   180.00000   180.00000     0.14622   180.00000   180.00000     0.14622
    18.90000   180.00000   360.00000     0.14607   180.00000   360.00000     0.14607
    19.00000   180.00000   180.00000     0.14593   180.00000   180.00000     0.14593
    19.10000   180.00000   180.00000     0.14578   180.00000   180.00000     0.14578
    19.20000   180.00000   360.00000     0.14564   180.00000   360.00000     0.14564
    19.30000   180.00000   180.00000     0.14549   180.00000   180.00000     0.14549
    19.40000   180.00000   360.00000     0.14534   180.00000   360.00000     0.14534
    19.50000   180.00000   180.00000     0.14520   180.00000   180.00000     0.14520
    19.60000   180.00000   360.00000     0.14505   180.00000   360.00000     0.14505
    19.70000   180.00000   360.00000     0.14491   180.00000   360.00000     0.14491
    19.80000   180.00000   360.00000     0.14476   180.00000   360.00000     0.14476
    19.90000   180.00000   360.00000     0.14462   180.00000   360.00000     0.14462
    20.00000   180.00000   180.00000     0.14447   180.00000   180.00000     0.14447
    20.10000   180.00000   360.00000     0.14432   180.00000   360.00000     0.14432
    20.20000   180.00000   180.00000     0.14418   180.00000   180.00000     0.14418
    20.30000   180.00000   180.00000     0.14403   180.00000   180.00000     0.14403
    20.40000   180.00000   360.00000     0.14389   180.00000   360.00000     0.14389
    20.50000   180.00000   180.00000     0.14374   180.00000   180.00000     0.14374
    20.60000   180.00000   360.00000     0.14360   180.00000   360.00000     0.14360
    20.70000   180.00000   180.00000     0.14345   180.00000   180.00000     0.14345
    20.80000   180.00000   360.00000     0.14330   180.00000   360.00000     0.14330
    20.90000   180.00000   180.00000     0.14316   180.00000   180.00000     0.14316
    21.00000   180.00000   180.00000     0.14301   180.00000   180.00000     0.14301
    21.10000   180.00000   180.00000     0.14287   180.00000   180.00000     0.14287
    21.20000   180.00000   180.00000     0.14272   180.00000   180.00000     0.14272
    21.30000   180.00000   180.00000     0.14258   180.00000   180.00000     0.14258
    21.40000   180.00000   360.00000     0.14243   180.00000   360.00000     0.14243
    21.50000   180.00000   360.00000     0.14229   180.00000   360.00000     0.14229
    21.60000   180.00000   360.00000     0.14214   180.00000   360.00000     0.14214
    21.70000   180.00000   180.00000     0.14199   180.00000   180.00000     0.14199
    21.80000   180.00000   360.00000     0.14185   180.00000   360.00000     0.14185
    21.90000   180.00000   360.00000     0.14170   180.00000   360.00000     0.14170
    22.00000   180.00000   360.00000     0.14156   180.00000   360.00000     0.14156
    22.10000   180.00000   360.00000     0.14141   180.00000   360.00000     0.14141
    22.20000   180.00000   360.00000     0.14127   180.00000   360.00000     0.14127
    22.30000   180.00000   180.00000     0.14112   180.00000   180.00000     0.14112
    22.40000   180.00000   180.00000     0.14098   180.00000   180.00000     0.14098
    22.50000   180.00000   360.00000     0.14083   180.00000   360.00000     0.14083
    22.60000   180.00000   360.00000     0.14069   180.00000   360.00000     0.14069
    22.70000   180.00000   360.00000     0.14054   180.00000   360.00000     0.14054
    22.80000   180.00000   360.00000     0.14039   180.00000   360.00000     0.14039
    22.90000   180.00000   180.00000     0.14025   180.00000   180.00000     0.14025
    23.00000   180.00000   180.00000     0.14010   180.00000   180.00000     0.14010
    23.10000   180.00000   180.00000     0.13996   180.00000   180.00000     0.13996
    23.20000   180.00000   180.00000     0.13981   180.00000   180.00000     0.13981
    23.30000   180.00000   180.00000     0.13967   180.00000   180.00000     0.13967
    23.40000   180.00000   180.00000     0.13952   180.00000   180.00000     0.13952
    23.50000   180.00000   360.00000     0.13938   180.00000   360.00000     0.13938
    23.60000   180.00000   360.00000     0.13923   180.00000   360.00000     0.13923
    23.70000   180.00000   180.00000     0.13909   180.00000   180.00000     0.13909
    23.80000   180.00000   360.00000     0.13894   180.00000   360.00000     0.13894
    23.90000   180.00000   360.00000     0.13880   180.00000   360.00000     0.13880
    24.00000   180.00000   180.00000     0.13865   180.00000   180.00000     0.13865
    24.10000   180.00000   360.00000     0.13850   180.00000   360.00000     0.13850
    24.20000   180.00000   180.00000     0.13836   180.00000   180.00000     0.13836
    24.30000   180.00000   360.00000     0.13821   180.00000   360.00000     0.13821
    24.40000   180.00000   180.00000     0.13807   180.00000   180.00000     0.13807
    24.50000   180.00000   360.00000     0.13792   180.00000   360.00000     0.13792
    24.60000   180.00000   360.00000     0.13778   180.00000   360.00000     0.13778
    24.70000   180.00000   180.00000     0.13763   180.00000   180.00000     0.13763
    24.80000   180.00000   180.00000     0.13749   180.00000   180.00000     0.13749
    24.90000   180.00000   180.00000     0.13734   180.00000   180.00000     0.13734
    25.00000   180.00000   360.00000     0.13720   180.00000   360.00000     0.13720
    25.10000   180.00000   360.00000     0.13705   180.00000   360.00000     0.13705
    25.20000   180.00000   360.00000     0.13691   180.00000   360.00000     0.13691
    25.30000   180.00000   360.00000     0.13676   180.00000   360.00000     0.13676
    25.40000   180.00000   180.00000     0.13662   180.00000   180.00000     0.13662
    25.50000   180.00000   180.00000     0.13647   180.00000   180.00000     0.13647
    25.60000   180.00000   180.00000     0.13633   180.00000   180.00000     0.13633
    25.70000   180.00000   360.00000     0.13618   180.00000   360.00000     0.13618
    25.80000   180.00000   360.00000     0.13604   180.00000   360.00000     0.13604
    25.90000   180.00000   360.00000     0.13589   180.00000   360.00000     0.13589
    26.00000   180.00000   180.00000     0.13575   180.00000   180.00000     0.13575
    26.10000   180.00000   360.00000     0.13560   180.00000   360.00000     0.13560
    26.20000   180.00000   180.00000     0.13546   180.00000   180.00000     0.13546
    26.30000   180.00000   180.00000     0.13531   180.00000   180.00000     0.13531
    26.40000   180.00000   180.00000     0.13517   180.00000   180.00000     0.13517
    26.50000   180.00000   180.00000     0.13502   180.00000   180.00000     0.13502
    26.60000   180.00000   360.00000     0.13488   180.00000   360.00000     0.13488
    26.70000   180.00000   180.00000     0.13473   180.00000   180.00000     0.13473
    26.80000   180.00000   180.00000     0.13459   180.00000   180.00000     0.13459
    26.90000   180.00000   360.00000     0.13444   180.00000   360.00000     0.13444
    27.00000   180.00000   180.00000     0.13430   180.00000   180.00000     0.13430
    27.10000   180.00000   180.00000     0.13415   180.00000   180.00000     0.13415
    27.20000   180.00000   180.00000     0.13401   180.00000   180.00000     0.13401
    27.30000   180.00000   360.00000     0.13386   180.00000   360.00000     0.13386
    27.40000   180.00000   360.00000     0.13372   180.00000   360.00000     0.13372
    27.50000   180.00000   180.00000     0.13357   180.00000   180.00000     0.13357
    27.60000   180.00000   360.00000     0.13343   180.00000   360.00000     0.13343
    27.70000   180.00000   360.00000     0.13328   180.00000   360.00000     0.13328
    27.80000   180.00000   180.00000     0.13314   180.00000   180.00000     0.13314
    27.90000   180.00000   180.00000     0.13299   180.00000   180.00000     0.13299
    28.00000   180.00000   360.00000     0.13285   180.00000   360.00000     0.13285
    28.10000   180.00000   180.00000     0.13270   180.00000   180.00000     0.13270
    28.20000   180.00000   360.00000     0.13256   180.00000   360.00000     0.13256
    28.30000   180.00000   360.00000     0.13241   180.00000   360.00000     0.13241
    28.40000   180.00000   180.00000     0.13227   180.00000   180.00000     0.13227
    28.50000   180.00000   180.00000     0.13212   180.00000   180.00000     0.13212
    28.60000   180.00000   360.00000     0.13198   180.00000   360.00000     0.13198
    28.70000   180.00000   360.00000     0.13183   180.00000   360.00000     0.13183
    28.80000   180.00000   180.00000     0.13169   180.00000   180.00000     0.13169
    28.90000   180.00000   180.00000     0.13154   180.00000   180.00000     0.13154
    29.00000   180.00000   360.00000     0.13140   180.00000   360.00000     0.13140
    29.10000   180.00000   180.00000     0.13125   180.00000   180.00000     0.13125
    29.20000   180.00000   360.00000     0.13111   180.00000   360.00000     0.13111
    29.30000   180.00000   180.00000     0.13096   180.00000   180.00000     0.13096
    29.40000   180.00000   180.00000     0.13082   180.00000   180.00000     0.13082
    29.50000   180.00000   360.00000     0.13067   180.00000   360.00000     0.13067
    29.60000   180.00000   360.00000     0.13053   180.00000   360.00000     0.13053
    29.70000   180.00000   180.00000     0.13039   180.00000   180.00000     0.13039
    29.80000   180.00000   180.00000     0.13024   180.00000   180.00000     0.13024
    29.90000   180.00000   360.00000     0.13010   180.00000   360.00000     0.13010
    30.00000   180.00000   180.00000     0.12995   180.00000   180.00000     0.12995
    30.10000   180.00000   360.00000     0.12981   180.00000   360.00000     0.12981
    30.20000   180.00000   360.00000     0.12966   180.00000   360.00000     0.12966
    30.30000   180.00000   360.00000     0.12952   180.00000   360.00000     0.12952
    30.40000   180.00000   360.00000     0.12937   180.00000   360.00000     0.12937
    30.50000   180.00000   360.00000     0.12923   180.00000   360.00000     0.12923
    30.60000   180.00000   180.00000     0.12908   180.00000   180.00000     0.12908
    30.70000   180.00000   180.00000     0.12894   180.00000   180.00000     0.12894
    30.80000   180.00000   180.00000     0.12879   180.00000   180.00000     0.12879
    30.90000   180.00000   360.00000     0.12865   180.00000   360.00000     0.12865
    31.00000   180.00000   360.00000     0.12850   180.00000   360.00000     0.12850
    31.10000   180.00000   180.00000     0.12836   180.00000   180.00000     0.12836
    31.20000   180.00000   360.00000     0.12822   180.00000   360.00000     0.12822
    31.30000   180.00000   360.00000     0.12807   180.00000   360.00000     0.12807
    31.40000   180.00000   180.00000     0.12793   180.00000   180.00000     0.12793
    31.50000   180.00000   180.00000     0.12778   180.00000   180.00000     0.12778
    31.60000   180.00000   360.00000     0.12764   180.00000   360.00000     0.12764
    31.70000   180.00000   180.00000     0.12749   180.00000   180.00000     0.12749
    31.80000   180.00000   180.00000     0.12735   180.00000   180.00000     0.12735
    31.90000   180.00000   360.00000     0.12720   180.00000   360.00000     0.12720
    32.00000   180.00000   360.00000     0.12706   180.00000   360.00000     0.12706
    32.10000   180.00000   180.00000     0.12691   180.00000   180.00000     0.12691
    32.20000   180.00000   180.00000     0.12677   180.00000   180.00000     0.12677
    32.30000   180.00000   180.00000     0.12663   180.00000   180.00000     0.12663
    32.40000   180.00000   180.00000     0.12648   180.00000   180.00000     0.12648
    32.50000   180.00000   360.00000     0.12634   180.00000   360.00000     0.12634
    32.60000   180.00000   180.00000     0.12619   180.00000   180.00000     0.12619
    32.70000   180.00000   180.00000     0.12605   180.00000   180.00000     0.12605
    32.80000   180.00000   180.00000     0.12590   180.00000   180.00000     0.12590
    32.90000   180.00000   180.00000     0.12576   180.00000   180.00000     0.12576
    33.00000   180.00000   360.00000     0.12562   180.00000   360.00000     0.12562
    33.10000   180.00000   360.00000     0.12547   180.00000   360.00000     0.12547
    33.20000   180.00000   360.00000     0.12533   180.00000   360.00000     0.12533
    33.30000   180.00000   180.00000     0.12518   180.00000   180.00000     0.12518
    33.40000   180.00000   180.00000     0.12504   180.00000   180.00000     0.12504
    33.50000   180.00000   180.00000     0.12489   180.00000   180.00000     0.12489
    33.60000   180.00000   180.00000     0.12475   180.00000   180.00000     0.12475
    33.70000   180.00000   180.00000     0.12460   180.00000   180.00000     0.12460
    33.80000   180.00000   180.00000     0.12446   180.00000   180.00000     0.12446
    33.90000   180.00000   360.00000     0.12432   180.00000   360.00000     0.12432
    34.00000   180.00000   180.00000     0.12417   180.00000   180.00000     0.12417
    34.10000   180.00000   360.00000     0.12403   180.00000   360.00000     0.12403
    34.20000   180.00000   360.00000     0.12388   180.00000   360.00000     0.12388
    34.30000   180.00000   180.00000     0.12374   180.00000   180.00000     0.12374
    34.40000   180.00000   180.00000     0.12359   180.00000   180.00000     0.12359
    34.50000   180.00000   360.00000     0.12345   180.00000   360.00000     0.12345
    34.60000   180.00000   180.00000     0.12331   180.00000   180.00000     0.12331
    34.70000   180.00000   180.00000     0.12316   180.00000   180.00000     0.12316
    34.80000   180.00000   180.00000     0.12302   180.00000   180.00000     0.12302
    34.90000   180.00000   360.00000     0.12287   180.00000   360.00000     0.12287
    35.00000   180.00000   360.00000     0.12273   180.00000   360.00000     0.12273
    35.10000   180.00000   360.00000     0.12259   180.00000   360.00000     0.12259
    35.20000   180.00000   360.00000     0.12244   180.00000   360.00000     0.12244
    35.30000   180.00000   180.00000     0.12230   180.00000   180.00000     0.12230
    35.40000   180.00000   180.00000     0.12215   180.00000   180.00000     0.12215
    35.50000   180.00000   360.00000     0.12201   180.00000   360.00000     0.12201
    35.60000   180.00000   360.00000     0.12186   180.00000   360.00000     0.12186
    35.70000   180.00000   180.00000     0.12172   180.00000   180.00000     0.12172
    35.80000   180.00000   360.00000     0.12158   180.00000   360.00000     0.12158
    35.90000   180.00000   180.00000     0.12143   180.00000   180.00000     0.12143
    36.00000   180.00000   360.00000     0.12129   180.00000   360.00000     0.12129
    36.10000   180.00000   180.00000     0.12114   180.00000   180.00000     0.12114
    36.20000   180.00000   360.00000     0.12100   180.00000   360.00000     0.12100
    36.30000   180.00000   180.00000     0.12086   180.00000   180.00000     0.12086
    36.40000   180.00000   180.00000     0.12071   180.00000   180.00000     0.12071
    36.50000   180.00000   180.00000     0.12057   180.00000   180.00000     0.12057
    36.60000   180.00000   180.00000     0.12042   180.00000   180.00000     0.12042
    36.70000   180.00000   360.00000     0.12028   180.00000   360.00000     0.12028
    36.80000   180.00000   360.00000     0.12014   180.00000   360.00000     0.12014
    36.90000   180.00000   360.00000     0.11999   180.00000   360.00000     0.11999
    37.00000   180.00000   180.00000     0.11985   180.00000   180.00000     0.11985
    37.10000   180.00000   360.00000     0.11970   180.00000   360.00000     0.11970
    37.20000   180.00000   360.00000     0.11956   180.00000   360.00000     0.11956
    37.30000   180.00000   180.00000     0.11942   180.00000   180.00000     0.11942
    37.40000   180.00000   360.00000     0.11927   180.00000   360.00000     0.11927
    37.50000   180.00000   180.00000     0.11913   180.00000   180.00000     0.11913
    37.60000   180.00000   360.00000     0.11898   180.00000   360.00000     0.11898
    37.70000   180.00000   360.00000     0.11884   180.00000   360.00000     0.11884
    37.80000   180.00000   360.00000     0.11870   180.00000   360.00000     0.11870
    37.90000   180.00000   360.00000     0.11855   180.00000   360.00000     0.11855
    38.00000   180.00000   180.00000     0.11841   180.00000   180.00000     0.11841
    38.10000   180.00000   180.00000     0.11826   180.00000   180.00000     0.11826
    38.20000   180.00000   180.00000     0.11812   180.00000   180.00000     0.11812
    38.30000   180.00000   360.00000     0.11798   180.00000   360.00000     0.11798
    38.40000   180.00000   360.00000     0.11783   180.00000   360.00000     0.11783
    38.50000   180.00000   180.00000     0.11769   180.00000   180.00000     0.11769
    38.60000   180.00000   180.00000     0.11755   180.00000   180.00000     0.11755
    38.70000   180.00000   180.00000     0.11740   180.00000   180.00000     0.11740
    38.80000   180.00000   180.00000     0.11726   180.00000   180.00000     0.11726
    38.90000   180.00000   360.00000     0.11711   180.00000   360.00000     0.11711
    39.00000   180.00000   180.00000     0.11697   180.00000   180.00000     0.11697
    39.10000   180.00000   360.00000     0.11683   180.00000   360.00000     0.11683
    39.20000   180.00000   180.00000     0.11668   180.00000   180.00000     0.11668
    39.30000   180.00000   180.00000     0.11654   180.00000   180.00000     0.11654
    39.40000   180.00000   180.00000     0.11640   180.00000   180.00000     0.11640
    39.50000   180.00000   360.00000     0.11625   180.00000   360.00000     0.11625
    39.60000   180.00000   360.00000     0.11611   180.00000   360.00000     0.11611
    39.70000   180.00000   180.00000     0.11596   180.00000   180.00000     0.11596
    39.80000   180.00000   360.00000     0.11582   180.00000   360.00000     0.11582
    39.90000   180.00000   180.00000     0.11568   180.00000   180.00000     0.11568
    40.00000   180.00000   180.00000     0.11553   180.00000   180.00000     0.11553
