 # applied field (T), theta (degree), phi (degree), abs for RE 1-2
     0.00000    90.00000    45.42193     4.68091    90.00000    45.42193     4.68091
     0.10000    90.00000    41.19907     4.68084    90.00000    41.19907     4.68084
     0.20000    90.00000    37.81718     4.68069    90.00000    37.81718     4.68069
     0.30000    90.00000    34.42969     4.68045    90.00000    34.42969     4.68045
     0.40000    90.00000    31.03418     4.68015    90.00000    31.03418     4.68015
     0.50000    90.00000    27.62870     4.67979    90.00000    27.62870     4.67979
     0.60000    90.00000    24.21184     4.67941    90.00000    24.21184     4.67941
     0.70000    90.00000    19.92406     4.67891    90.00000    19.92406     4.67891
     0.80000    90.00000    15.61729     4.67843    90.00000    15.61729     4.67843
     0.90000    90.00000    10.42701     4.67796    90.00000    10.42701     4.67796
     1.00000    90.00000   360.00000     4.67753    90.00000   360.00000     4.67753
     1.10000    90.00000   360.00000     4.67751    90.00000   360.00000     4.67751
     1.20000    90.00000   360.00000     4.67749    90.00000   360.00000     4.67749
     1.30000    90.00000   360.00000     4.67748    90.00000   360.00000     4.67748
     1.40000    90.00000   360.00000     4.67746    90.00000   360.00000     4.67746
     1.50000    90.00000   360.00000     4.67744    90.00000   360.00000     4.67744
     1.60000    90.00000   360.00000     4.67742    90.00000   360.00000     4.67742
     1.70000    90.00000   360.00000     4.67741    90.00000   360.00000     4.67741
     1.80000    90.00000   360.00000     4.67739    90.00000   360.00000     4.67739
     1.90000    90.00000   360.00000     4.67737    90.00000   360.00000     4.67737
     2.00000    90.00000   360.00000     4.67735    90.00000   360.00000     4.67735
     2.10000    90.00000   360.00000     4.67734    90.00000   360.00000     4.67734
     2.20000    90.00000   360.00000     4.67732    90.00000   360.00000     4.67732
     2.30000    90.00000   360.00000     4.67730    90.00000   360.00000     4.67730
     2.40000    90.00000   360.00000     4.67728    90.00000   360.00000     4.67728
     2.50000    90.00000   360.00000     4.67727    90.00000   360.00000     4.67727
     2.60000    90.00000   360.00000     4.67725    90.00000   360.00000     4.67725
     2.70000    90.00000   360.00000     4.67723    90.00000   360.00000     4.67723
     2.80000    90.00000   360.00000     4.67721    90.00000   360.00000     4.67721
     2.90000    90.00000   360.00000     4.67720    90.00000   360.00000     4.67720
     3.00000    90.00000   360.00000     4.67718    90.00000   360.00000     4.67718
     3.10000    90.00000   360.00000     4.67716    90.00000   360.00000     4.67716
     3.20000    90.00000   360.00000     4.67714    90.00000   360.00000     4.67714
     3.30000    90.00000   360.00000     4.67712    90.00000   360.00000     4.67712
     3.40000    90.00000   360.00000     4.67711    90.00000   360.00000     4.67711
     3.50000    90.00000   360.00000     4.67709    90.00000   360.00000     4.67709
     3.60000    90.00000   360.00000     4.67707    90.00000   360.00000     4.67707
     3.70000    90.00000   360.00000     4.67705    90.00000   360.00000     4.67705
     3.80000    90.00000   360.00000     4.67704    90.00000   360.00000     4.67704
     3.90000    90.00000   360.00000     4.67702    90.00000   360.00000     4.67702
     4.00000    90.00000   360.00000     4.67700    90.00000   360.00000     4.67700
     4.10000    90.00000   360.00000     4.67698    90.00000   360.00000     4.67698
     4.20000    90.00000   360.00000     4.67697    90.00000   360.00000     4.67697
     4.30000    90.00000   360.00000     4.67695    90.00000   360.00000     4.67695
     4.40000    90.00000   360.00000     4.67693    90.00000   360.00000     4.67693
     4.50000    90.00000   360.00000     4.67691    90.00000   360.00000     4.67691
     4.60000    90.00000   360.00000     4.67690    90.00000   360.00000     4.67690
     4.70000    90.00000   360.00000     4.67688    90.00000   360.00000     4.67688
     4.80000    90.00000   360.00000     4.67686    90.00000   360.00000     4.67686
     4.90000    90.00000   360.00000     4.67684    90.00000   360.00000     4.67684
     5.00000    90.00000   360.00000     4.67683    90.00000   360.00000     4.67683
     5.10000    90.00000   360.00000     4.67681    90.00000   360.00000     4.67681
     5.20000    90.00000   360.00000     4.67679    90.00000   360.00000     4.67679
     5.30000    90.00000   360.00000     4.67677    90.00000   360.00000     4.67677
     5.40000    90.00000   360.00000     4.67676    90.00000   360.00000     4.67676
     5.50000    90.00000   360.00000     4.67674    90.00000   360.00000     4.67674
     5.60000    90.00000   360.00000     4.67672    90.00000   360.00000     4.67672
     5.70000    90.00000   360.00000     4.67670    90.00000   360.00000     4.67670
     5.80000    90.00000   360.00000     4.67669    90.00000   360.00000     4.67669
     5.90000    90.00000   360.00000     4.67667    90.00000   360.00000     4.67667
     6.00000    90.00000   360.00000     4.67665    90.00000   360.00000     4.67665
     6.10000    90.00000   360.00000     4.67663    90.00000   360.00000     4.67663
     6.20000    90.00000   360.00000     4.67661    90.00000   360.00000     4.67661
     6.30000    90.00000   360.00000     4.67660    90.00000   360.00000     4.67660
     6.40000    90.00000   360.00000     4.67658    90.00000   360.00000     4.67658
     6.50000    90.00000   360.00000     4.67656    90.00000   360.00000     4.67656
     6.60000    90.00000   360.00000     4.67654    90.00000   360.00000     4.67654
     6.70000    90.00000   360.00000     4.67653    90.00000   360.00000     4.67653
     6.80000    90.00000   360.00000     4.67651    90.00000   360.00000     4.67651
     6.90000    90.00000   360.00000     4.67649    90.00000   360.00000     4.67649
     7.00000    90.00000   360.00000     4.67647    90.00000   360.00000     4.67647
     7.10000    90.00000   360.00000     4.67646    90.00000   360.00000     4.67646
     7.20000    90.00000   360.00000     4.67644    90.00000   360.00000     4.67644
     7.30000    90.00000   360.00000     4.67642    90.00000   360.00000     4.67642
     7.40000    90.00000   360.00000     4.67640    90.00000   360.00000     4.67640
     7.50000    90.00000   360.00000     4.67638    90.00000   360.00000     4.67638
     7.60000    90.00000   360.00000     4.67637    90.00000   360.00000     4.67637
     7.70000    90.00000   360.00000     4.67635    90.00000   360.00000     4.67635
     7.80000    90.00000   360.00000     4.67633    90.00000   360.00000     4.67633
     7.90000    90.00000   360.00000     4.67631    90.00000   360.00000     4.67631
     8.00000    90.00000   360.00000     4.67630    90.00000   360.00000     4.67630
     8.10000    90.00000   360.00000     4.67628    90.00000   360.00000     4.67628
     8.20000    90.00000   360.00000     4.67626    90.00000   360.00000     4.67626
     8.30000    90.00000   360.00000     4.67624    90.00000   360.00000     4.67624
     8.40000    90.00000   360.00000     4.67622    90.00000   360.00000     4.67622
     8.50000    90.00000   360.00000     4.67621    90.00000   360.00000     4.67621
     8.60000    90.00000   360.00000     4.67619    90.00000   360.00000     4.67619
     8.70000    90.00000   360.00000     4.67617    90.00000   360.00000     4.67617
     8.80000    90.00000   360.00000     4.67615    90.00000   360.00000     4.67615
     8.90000    90.00000   360.00000     4.67614    90.00000   360.00000     4.67614
     9.00000    90.00000   360.00000     4.67612    90.00000   360.00000     4.67612
     9.10000    90.00000   360.00000     4.67610    90.00000   360.00000     4.67610
     9.20000    90.00000   360.00000     4.67608    90.00000   360.00000     4.67608
     9.30000    90.00000   360.00000     4.67607    90.00000   360.00000     4.67607
     9.40000    90.00000   360.00000     4.67605    90.00000   360.00000     4.67605
     9.50000    90.00000   360.00000     4.67603    90.00000   360.00000     4.67603
     9.60000    90.00000   360.00000     4.67601    90.00000   360.00000     4.67601
     9.70000    90.00000   360.00000     4.67599    90.00000   360.00000     4.67599
     9.80000    90.00000   360.00000     4.67598    90.00000   360.00000     4.67598
     9.90000    90.00000   360.00000     4.67596    90.00000   360.00000     4.67596
    10.00000    90.00000   360.00000     4.67594    90.00000   360.00000     4.67594
    10.10000    90.00000   360.00000     4.67592    90.00000   360.00000     4.67592
    10.20000    90.00000   360.00000     4.67590    90.00000   360.00000     4.67590
    10.30000    90.00000   360.00000     4.67589    90.00000   360.00000     4.67589
    10.40000    90.00000   360.00000     4.67587    90.00000   360.00000     4.67587
    10.50000    90.00000   360.00000     4.67585    90.00000   360.00000     4.67585
    10.60000    90.00000   360.00000     4.67583    90.00000   360.00000     4.67583
    10.70000    90.00000   360.00000     4.67582    90.00000   360.00000     4.67582
    10.80000    90.00000   360.00000     4.67580    90.00000   360.00000     4.67580
    10.90000    90.00000   360.00000     4.67578    90.00000   360.00000     4.67578
    11.00000    90.00000   360.00000     4.67576    90.00000   360.00000     4.67576
    11.10000    90.00000   360.00000     4.67574    90.00000   360.00000     4.67574
    11.20000    90.00000   360.00000     4.67573    90.00000   360.00000     4.67573
    11.30000    90.00000   360.00000     4.67571    90.00000   360.00000     4.67571
    11.40000    90.00000   360.00000     4.67569    90.00000   360.00000     4.67569
    11.50000    90.00000   360.00000     4.67567    90.00000   360.00000     4.67567
    11.60000    90.00000   360.00000     4.67566    90.00000   360.00000     4.67566
    11.70000    90.00000   360.00000     4.67564    90.00000   360.00000     4.67564
    11.80000    90.00000   360.00000     4.67562    90.00000   360.00000     4.67562
    11.90000    90.00000   360.00000     4.67560    90.00000   360.00000     4.67560
    12.00000    90.00000   360.00000     4.67558    90.00000   360.00000     4.67558
    12.10000    90.00000   360.00000     4.67557    90.00000   360.00000     4.67557
    12.20000    90.00000   360.00000     4.67555    90.00000   360.00000     4.67555
    12.30000    90.00000   360.00000     4.67553    90.00000   360.00000     4.67553
    12.40000    90.00000   360.00000     4.67551    90.00000   360.00000     4.67551
    12.50000    90.00000   360.00000     4.67549    90.00000   360.00000     4.67549
    12.60000    90.00000   360.00000     4.67548    90.00000   360.00000     4.67548
    12.70000    90.00000   360.00000     4.67546    90.00000   360.00000     4.67546
    12.80000    90.00000   360.00000     4.67544    90.00000   360.00000     4.67544
    12.90000    90.00000   360.00000     4.67542    90.00000   360.00000     4.67542
    13.00000    90.00000   360.00000     4.67540    90.00000   360.00000     4.67540
    13.10000    90.00000   360.00000     4.67539    90.00000   360.00000     4.67539
    13.20000    90.00000   360.00000     4.67537    90.00000   360.00000     4.67537
    13.30000    90.00000   360.00000     4.67535    90.00000   360.00000     4.67535
    13.40000    90.00000   360.00000     4.67533    90.00000   360.00000     4.67533
    13.50000    90.00000   360.00000     4.67531    90.00000   360.00000     4.67531
    13.60000    90.00000   360.00000     4.67530    90.00000   360.00000     4.67530
    13.70000    90.00000   360.00000     4.67528    90.00000   360.00000     4.67528
    13.80000    90.00000   360.00000     4.67526    90.00000   360.00000     4.67526
    13.90000    90.00000   360.00000     4.67524    90.00000   360.00000     4.67524
    14.00000    90.00000   360.00000     4.67522    90.00000   360.00000     4.67522
    14.10000    90.00000   360.00000     4.67521    90.00000   360.00000     4.67521
    14.20000    90.00000   360.00000     4.67519    90.00000   360.00000     4.67519
    14.30000    90.00000   360.00000     4.67517    90.00000   360.00000     4.67517
    14.40000    90.00000   360.00000     4.67515    90.00000   360.00000     4.67515
    14.50000    90.00000   360.00000     4.67514    90.00000   360.00000     4.67514
    14.60000    90.00000   360.00000     4.67512    90.00000   360.00000     4.67512
    14.70000    90.00000   360.00000     4.67510    90.00000   360.00000     4.67510
    14.80000    90.00000   360.00000     4.67508    90.00000   360.00000     4.67508
    14.90000    90.00000   360.00000     4.67506    90.00000   360.00000     4.67506
    15.00000    90.00000   360.00000     4.67505    90.00000   360.00000     4.67505
    15.10000    90.00000   360.00000     4.67503    90.00000   360.00000     4.67503
    15.20000    90.00000   360.00000     4.67501    90.00000   360.00000     4.67501
    15.30000    90.00000   360.00000     4.67499    90.00000   360.00000     4.67499
    15.40000    90.00000   360.00000     4.67497    90.00000   360.00000     4.67497
    15.50000    90.00000   360.00000     4.67496    90.00000   360.00000     4.67496
    15.60000    90.00000   360.00000     4.67494    90.00000   360.00000     4.67494
    15.70000    90.00000   360.00000     4.67492    90.00000   360.00000     4.67492
    15.80000    90.00000   360.00000     4.67490    90.00000   360.00000     4.67490
    15.90000    90.00000   360.00000     4.67488    90.00000   360.00000     4.67488
    16.00000    90.00000   360.00000     4.67486    90.00000   360.00000     4.67486
    16.10000    90.00000   360.00000     4.67485    90.00000   360.00000     4.67485
    16.20000    90.00000   360.00000     4.67483    90.00000   360.00000     4.67483
    16.30000    90.00000   360.00000     4.67481    90.00000   360.00000     4.67481
    16.40000    90.00000   360.00000     4.67479    90.00000   360.00000     4.67479
    16.50000    90.00000   360.00000     4.67477    90.00000   360.00000     4.67477
    16.60000    90.00000   360.00000     4.67476    90.00000   360.00000     4.67476
    16.70000    90.00000   360.00000     4.67474    90.00000   360.00000     4.67474
    16.80000    90.00000   360.00000     4.67472    90.00000   360.00000     4.67472
    16.90000    90.00000   360.00000     4.67470    90.00000   360.00000     4.67470
    17.00000    90.00000   360.00000     4.67468    90.00000   360.00000     4.67468
    17.10000    90.00000   360.00000     4.67467    90.00000   360.00000     4.67467
    17.20000    90.00000   360.00000     4.67465    90.00000   360.00000     4.67465
    17.30000    90.00000   360.00000     4.67463    90.00000   360.00000     4.67463
    17.40000    90.00000   360.00000     4.67461    90.00000   360.00000     4.67461
    17.50000    90.00000   360.00000     4.67459    90.00000   360.00000     4.67459
    17.60000    90.00000   360.00000     4.67458    90.00000   360.00000     4.67458
    17.70000    90.00000   360.00000     4.67456    90.00000   360.00000     4.67456
    17.80000    90.00000   360.00000     4.67454    90.00000   360.00000     4.67454
    17.90000    90.00000   360.00000     4.67452    90.00000   360.00000     4.67452
    18.00000    90.00000   360.00000     4.67450    90.00000   360.00000     4.67450
    18.10000    90.00000   360.00000     4.67449    90.00000   360.00000     4.67449
    18.20000    90.00000   360.00000     4.67447    90.00000   360.00000     4.67447
    18.30000    90.00000   360.00000     4.67445    90.00000   360.00000     4.67445
    18.40000    90.00000   360.00000     4.67443    90.00000   360.00000     4.67443
    18.50000    90.00000   360.00000     4.67441    90.00000   360.00000     4.67441
    18.60000    90.00000   360.00000     4.67439    90.00000   360.00000     4.67439
    18.70000    90.00000   360.00000     4.67438    90.00000   360.00000     4.67438
    18.80000    90.00000   360.00000     4.67436    90.00000   360.00000     4.67436
    18.90000    90.00000   360.00000     4.67434    90.00000   360.00000     4.67434
    19.00000    90.00000   360.00000     4.67432    90.00000   360.00000     4.67432
    19.10000    90.00000   360.00000     4.67430    90.00000   360.00000     4.67430
    19.20000    90.00000   360.00000     4.67429    90.00000   360.00000     4.67429
    19.30000    90.00000   360.00000     4.67427    90.00000   360.00000     4.67427
    19.40000    90.00000   360.00000     4.67425    90.00000   360.00000     4.67425
    19.50000    90.00000   360.00000     4.67423    90.00000   360.00000     4.67423
    19.60000    90.00000   360.00000     4.67421    90.00000   360.00000     4.67421
    19.70000    90.00000   360.00000     4.67419    90.00000   360.00000     4.67419
    19.80000    90.00000   360.00000     4.67418    90.00000   360.00000     4.67418
    19.90000    90.00000   360.00000     4.67416    90.00000   360.00000     4.67416
    20.00000    90.00000   360.00000     4.67414    90.00000   360.00000     4.67414
    20.10000    90.00000   360.00000     4.67412    90.00000   360.00000     4.67412
    20.20000    90.00000   360.00000     4.67410    90.00000   360.00000     4.67410
    20.30000    90.00000   360.00000     4.67409    90.00000   360.00000     4.67409
    20.40000    90.00000   360.00000     4.67407    90.00000   360.00000     4.67407
    20.50000    90.00000   360.00000     4.67405    90.00000   360.00000     4.67405
    20.60000    90.00000   360.00000     4.67403    90.00000   360.00000     4.67403
    20.70000    90.00000   360.00000     4.67401    90.00000   360.00000     4.67401
    20.80000    90.00000   360.00000     4.67399    90.00000   360.00000     4.67399
    20.90000    90.00000   360.00000     4.67398    90.00000   360.00000     4.67398
    21.00000    90.00000   360.00000     4.67396    90.00000   360.00000     4.67396
    21.10000    90.00000   360.00000     4.67394    90.00000   360.00000     4.67394
    21.20000    90.00000   360.00000     4.67392    90.00000   360.00000     4.67392
    21.30000    90.00000   360.00000     4.67390    90.00000   360.00000     4.67390
    21.40000    90.00000   360.00000     4.67389    90.00000   360.00000     4.67389
    21.50000    90.00000   360.00000     4.67387    90.00000   360.00000     4.67387
    21.60000    90.00000   360.00000     4.67385    90.00000   360.00000     4.67385
    21.70000    90.00000   360.00000     4.67383    90.00000   360.00000     4.67383
    21.80000    90.00000   360.00000     4.67381    90.00000   360.00000     4.67381
    21.90000    90.00000   360.00000     4.67379    90.00000   360.00000     4.67379
    22.00000    90.00000   360.00000     4.67378    90.00000   360.00000     4.67378
    22.10000    90.00000   360.00000     4.67376    90.00000   360.00000     4.67376
    22.20000    90.00000   360.00000     4.67374    90.00000   360.00000     4.67374
    22.30000    90.00000   360.00000     4.67372    90.00000   360.00000     4.67372
    22.40000    90.00000   360.00000     4.67370    90.00000   360.00000     4.67370
    22.50000    90.00000   360.00000     4.67368    90.00000   360.00000     4.67368
    22.60000    90.00000   360.00000     4.67367    90.00000   360.00000     4.67367
    22.70000    90.00000   360.00000     4.67365    90.00000   360.00000     4.67365
    22.80000    90.00000   360.00000     4.67363    90.00000   360.00000     4.67363
    22.90000    90.00000   360.00000     4.67361    90.00000   360.00000     4.67361
    23.00000    90.00000   360.00000     4.67359    90.00000   360.00000     4.67359
    23.10000    90.00000   360.00000     4.67357    90.00000   360.00000     4.67357
    23.20000    90.00000   360.00000     4.67356    90.00000   360.00000     4.67356
    23.30000    90.00000   360.00000     4.67354    90.00000   360.00000     4.67354
    23.40000    90.00000   360.00000     4.67352    90.00000   360.00000     4.67352
    23.50000    90.00000   360.00000     4.67350    90.00000   360.00000     4.67350
    23.60000    90.00000   360.00000     4.67348    90.00000   360.00000     4.67348
    23.70000    90.00000   360.00000     4.67346    90.00000   360.00000     4.67346
    23.80000    90.00000   360.00000     4.67345    90.00000   360.00000     4.67345
    23.90000    90.00000   360.00000     4.67343    90.00000   360.00000     4.67343
    24.00000    90.00000   360.00000     4.67341    90.00000   360.00000     4.67341
    24.10000    90.00000   360.00000     4.67339    90.00000   360.00000     4.67339
    24.20000    90.00000   360.00000     4.67337    90.00000   360.00000     4.67337
    24.30000    90.00000   360.00000     4.67335    90.00000   360.00000     4.67335
    24.40000    90.00000   360.00000     4.67334    90.00000   360.00000     4.67334
    24.50000    90.00000   360.00000     4.67332    90.00000   360.00000     4.67332
    24.60000    90.00000   360.00000     4.67330    90.00000   360.00000     4.67330
    24.70000    90.00000   360.00000     4.67328    90.00000   360.00000     4.67328
    24.80000    90.00000   360.00000     4.67326    90.00000   360.00000     4.67326
    24.90000    90.00000   360.00000     4.67324    90.00000   360.00000     4.67324
    25.00000    90.00000   360.00000     4.67323    90.00000   360.00000     4.67323
    25.10000    90.00000   360.00000     4.67321    90.00000   360.00000     4.67321
    25.20000    90.00000   360.00000     4.67319    90.00000   360.00000     4.67319
    25.30000    90.00000   360.00000     4.67317    90.00000   360.00000     4.67317
    25.40000    90.00000   360.00000     4.67315    90.00000   360.00000     4.67315
    25.50000    90.00000   360.00000     4.67313    90.00000   360.00000     4.67313
    25.60000    90.00000   360.00000     4.67312    90.00000   360.00000     4.67312
    25.70000    90.00000   360.00000     4.67310    90.00000   360.00000     4.67310
    25.80000    90.00000   360.00000     4.67308    90.00000   360.00000     4.67308
    25.90000    90.00000   360.00000     4.67306    90.00000   360.00000     4.67306
    26.00000    90.00000   360.00000     4.67304    90.00000   360.00000     4.67304
    26.10000    90.00000   360.00000     4.67302    90.00000   360.00000     4.67302
    26.20000    90.00000   360.00000     4.67300    90.00000   360.00000     4.67300
    26.30000    90.00000   360.00000     4.67299    90.00000   360.00000     4.67299
    26.40000    90.00000   360.00000     4.67297    90.00000   360.00000     4.67297
    26.50000    90.00000   360.00000     4.67295    90.00000   360.00000     4.67295
    26.60000    90.00000   360.00000     4.67293    90.00000   360.00000     4.67293
    26.70000    90.00000   360.00000     4.67291    90.00000   360.00000     4.67291
    26.80000    90.00000   360.00000     4.67289    90.00000   360.00000     4.67289
    26.90000    90.00000   360.00000     4.67288    90.00000   360.00000     4.67288
    27.00000    90.00000   360.00000     4.67286    90.00000   360.00000     4.67286
    27.10000    90.00000   360.00000     4.67284    90.00000   360.00000     4.67284
    27.20000    90.00000   360.00000     4.67282    90.00000   360.00000     4.67282
    27.30000    90.00000   360.00000     4.67280    90.00000   360.00000     4.67280
    27.40000    90.00000   360.00000     4.67278    90.00000   360.00000     4.67278
    27.50000    90.00000   360.00000     4.67276    90.00000   360.00000     4.67276
    27.60000    90.00000   360.00000     4.67275    90.00000   360.00000     4.67275
    27.70000    90.00000   360.00000     4.67273    90.00000   360.00000     4.67273
    27.80000    90.00000   360.00000     4.67271    90.00000   360.00000     4.67271
    27.90000    90.00000   360.00000     4.67269    90.00000   360.00000     4.67269
    28.00000    90.00000   360.00000     4.67267    90.00000   360.00000     4.67267
    28.10000    90.00000   360.00000     4.67265    90.00000   360.00000     4.67265
    28.20000    90.00000   360.00000     4.67264    90.00000   360.00000     4.67264
    28.30000    90.00000   360.00000     4.67262    90.00000   360.00000     4.67262
    28.40000    90.00000   360.00000     4.67260    90.00000   360.00000     4.67260
    28.50000    90.00000   360.00000     4.67258    90.00000   360.00000     4.67258
    28.60000    90.00000   360.00000     4.67256    90.00000   360.00000     4.67256
    28.70000    90.00000   360.00000     4.67254    90.00000   360.00000     4.67254
    28.80000    90.00000   360.00000     4.67252    90.00000   360.00000     4.67252
    28.90000    90.00000   360.00000     4.67251    90.00000   360.00000     4.67251
    29.00000    90.00000   360.00000     4.67249    90.00000   360.00000     4.67249
    29.10000    90.00000   360.00000     4.67247    90.00000   360.00000     4.67247
    29.20000    90.00000   360.00000     4.67245    90.00000   360.00000     4.67245
    29.30000    90.00000   360.00000     4.67243    90.00000   360.00000     4.67243
    29.40000    90.00000   360.00000     4.67241    90.00000   360.00000     4.67241
    29.50000    90.00000   360.00000     4.67239    90.00000   360.00000     4.67239
    29.60000    90.00000   360.00000     4.67238    90.00000   360.00000     4.67238
    29.70000    90.00000   360.00000     4.67236    90.00000   360.00000     4.67236
    29.80000    90.00000   360.00000     4.67234    90.00000   360.00000     4.67234
    29.90000    90.00000   360.00000     4.67232    90.00000   360.00000     4.67232
    30.00000    90.00000   360.00000     4.67230    90.00000   360.00000     4.67230
    30.10000    90.00000   360.00000     4.67228    90.00000   360.00000     4.67228
    30.20000    90.00000   360.00000     4.67226    90.00000   360.00000     4.67226
    30.30000    90.00000   360.00000     4.67225    90.00000   360.00000     4.67225
    30.40000    90.00000   360.00000     4.67223    90.00000   360.00000     4.67223
    30.50000    90.00000   360.00000     4.67221    90.00000   360.00000     4.67221
    30.60000    90.00000   360.00000     4.67219    90.00000   360.00000     4.67219
    30.70000    90.00000   360.00000     4.67217    90.00000   360.00000     4.67217
    30.80000    90.00000   360.00000     4.67215    90.00000   360.00000     4.67215
    30.90000    90.00000   360.00000     4.67213    90.00000   360.00000     4.67213
    31.00000    90.00000   360.00000     4.67212    90.00000   360.00000     4.67212
    31.10000    90.00000   360.00000     4.67210    90.00000   360.00000     4.67210
    31.20000    90.00000   360.00000     4.67208    90.00000   360.00000     4.67208
    31.30000    90.00000   360.00000     4.67206    90.00000   360.00000     4.67206
    31.40000    90.00000   360.00000     4.67204    90.00000   360.00000     4.67204
    31.50000    90.00000   360.00000     4.67202    90.00000   360.00000     4.67202
    31.60000    90.00000   360.00000     4.67200    90.00000   360.00000     4.67200
    31.70000    90.00000   360.00000     4.67198    90.00000   360.00000     4.67198
    31.80000    90.00000   360.00000     4.67197    90.00000   360.00000     4.67197
    31.90000    90.00000   360.00000     4.67195    90.00000   360.00000     4.67195
    32.00000    90.00000   360.00000     4.67193    90.00000   360.00000     4.67193
    32.10000    90.00000   360.00000     4.67191    90.00000   360.00000     4.67191
    32.20000    90.00000   360.00000     4.67189    90.00000   360.00000     4.67189
    32.30000    90.00000   360.00000     4.67187    90.00000   360.00000     4.67187
    32.40000    90.00000   360.00000     4.67185    90.00000   360.00000     4.67185
    32.50000    90.00000   360.00000     4.67184    90.00000   360.00000     4.67184
    32.60000    90.00000   360.00000     4.67182    90.00000   360.00000     4.67182
    32.70000    90.00000   360.00000     4.67180    90.00000   360.00000     4.67180
    32.80000    90.00000   360.00000     4.67178    90.00000   360.00000     4.67178
    32.90000    90.00000   360.00000     4.67176    90.00000   360.00000     4.67176
    33.00000    90.00000   360.00000     4.67174    90.00000   360.00000     4.67174
    33.10000    90.00000   360.00000     4.67172    90.00000   360.00000     4.67172
    33.20000    90.00000   360.00000     4.67170    90.00000   360.00000     4.67170
    33.30000    90.00000   360.00000     4.67169    90.00000   360.00000     4.67169
    33.40000    90.00000   360.00000     4.67167    90.00000   360.00000     4.67167
    33.50000    90.00000   360.00000     4.67165    90.00000   360.00000     4.67165
    33.60000    90.00000   360.00000     4.67163    90.00000   360.00000     4.67163
    33.70000    90.00000   360.00000     4.67161    90.00000   360.00000     4.67161
    33.80000    90.00000   360.00000     4.67159    90.00000   360.00000     4.67159
    33.90000    90.00000   360.00000     4.67157    90.00000   360.00000     4.67157
    34.00000    90.00000   360.00000     4.67155    90.00000   360.00000     4.67155
    34.10000    90.00000   360.00000     4.67154    90.00000   360.00000     4.67154
    34.20000    90.00000   360.00000     4.67152    90.00000   360.00000     4.67152
    34.30000    90.00000   360.00000     4.67150    90.00000   360.00000     4.67150
    34.40000    90.00000   360.00000     4.67148    90.00000   360.00000     4.67148
    34.50000    90.00000   360.00000     4.67146    90.00000   360.00000     4.67146
    34.60000    90.00000   360.00000     4.67144    90.00000   360.00000     4.67144
    34.70000    90.00000   360.00000     4.67142    90.00000   360.00000     4.67142
    34.80000    90.00000   360.00000     4.67140    90.00000   360.00000     4.67140
    34.90000    90.00000   360.00000     4.67139    90.00000   360.00000     4.67139
    35.00000    90.00000   360.00000     4.67137    90.00000   360.00000     4.67137
    35.10000    90.00000   360.00000     4.67135    90.00000   360.00000     4.67135
    35.20000    90.00000   360.00000     4.67133    90.00000   360.00000     4.67133
    35.30000    90.00000   360.00000     4.67131    90.00000   360.00000     4.67131
    35.40000    90.00000   360.00000     4.67129    90.00000   360.00000     4.67129
    35.50000    90.00000   360.00000     4.67127    90.00000   360.00000     4.67127
    35.60000    90.00000   360.00000     4.67125    90.00000   360.00000     4.67125
    35.70000    90.00000   360.00000     4.67124    90.00000   360.00000     4.67124
    35.80000    90.00000   360.00000     4.67122    90.00000   360.00000     4.67122
    35.90000    90.00000   360.00000     4.67120    90.00000   360.00000     4.67120
    36.00000    90.00000   360.00000     4.67118    90.00000   360.00000     4.67118
    36.10000    90.00000   360.00000     4.67116    90.00000   360.00000     4.67116
    36.20000    90.00000   360.00000     4.67114    90.00000   360.00000     4.67114
    36.30000    90.00000   360.00000     4.67112    90.00000   360.00000     4.67112
    36.40000    90.00000   360.00000     4.67110    90.00000   360.00000     4.67110
    36.50000    90.00000   360.00000     4.67109    90.00000   360.00000     4.67109
    36.60000    90.00000   360.00000     4.67107    90.00000   360.00000     4.67107
    36.70000    90.00000   360.00000     4.67105    90.00000   360.00000     4.67105
    36.80000    90.00000   360.00000     4.67103    90.00000   360.00000     4.67103
    36.90000    90.00000   360.00000     4.67101    90.00000   360.00000     4.67101
    37.00000    90.00000   360.00000     4.67099    90.00000   360.00000     4.67099
    37.10000    90.00000   360.00000     4.67097    90.00000   360.00000     4.67097
    37.20000    90.00000   360.00000     4.67095    90.00000   360.00000     4.67095
    37.30000    90.00000   360.00000     4.67093    90.00000   360.00000     4.67093
    37.40000    90.00000   360.00000     4.67092    90.00000   360.00000     4.67092
    37.50000    90.00000   360.00000     4.67090    90.00000   360.00000     4.67090
    37.60000    90.00000   360.00000     4.67088    90.00000   360.00000     4.67088
    37.70000    90.00000   360.00000     4.67086    90.00000   360.00000     4.67086
    37.80000    90.00000   360.00000     4.67084    90.00000   360.00000     4.67084
    37.90000    90.00000   360.00000     4.67082    90.00000   360.00000     4.67082
    38.00000    90.00000   360.00000     4.67080    90.00000   360.00000     4.67080
    38.10000    90.00000   360.00000     4.67078    90.00000   360.00000     4.67078
    38.20000    90.00000   360.00000     4.67076    90.00000   360.00000     4.67076
    38.30000    90.00000   360.00000     4.67075    90.00000   360.00000     4.67075
    38.40000    90.00000   360.00000     4.67073    90.00000   360.00000     4.67073
    38.50000    90.00000   360.00000     4.67071    90.00000   360.00000     4.67071
    38.60000    90.00000   360.00000     4.67069    90.00000   360.00000     4.67069
    38.70000    90.00000   360.00000     4.67067    90.00000   360.00000     4.67067
    38.80000    90.00000   360.00000     4.67065    90.00000   360.00000     4.67065
    38.90000    90.00000   360.00000     4.67063    90.00000   360.00000     4.67063
    39.00000    90.00000   360.00000     4.67061    90.00000   360.00000     4.67061
    39.10000    90.00000   360.00000     4.67059    90.00000   360.00000     4.67059
    39.20000    90.00000   360.00000     4.67058    90.00000   360.00000     4.67058
    39.30000    90.00000   360.00000     4.67056    90.00000   360.00000     4.67056
    39.40000    90.00000   360.00000     4.67054    90.00000   360.00000     4.67054
    39.50000    90.00000   360.00000     4.67052    90.00000   360.00000     4.67052
    39.60000    90.00000   360.00000     4.67050    90.00000   360.00000     4.67050
    39.70000    90.00000   360.00000     4.67048    90.00000   360.00000     4.67048
    39.80000    90.00000   360.00000     4.67046    90.00000   360.00000     4.67046
    39.90000    90.00000   360.00000     4.67044    90.00000   360.00000     4.67044
    40.00000    90.00000   360.00000     4.67042    90.00000   360.00000     4.67042
