 # applied field (T), theta (degree), phi (degree), abs for RE 1-2
     0.00000    90.00000    45.41863     4.57866    90.00000    45.41863     4.57866
     0.10000    90.00000    41.22815     4.57850    90.00000    41.22815     4.57850
     0.20000    90.00000    37.87049     4.57811    90.00000    37.87049     4.57811
     0.30000    90.00000    34.50433     4.57751    90.00000    34.50433     4.57751
     0.40000    90.00000    31.12606     4.57672    90.00000    31.12606     4.57672
     0.50000    90.00000    27.73272     4.57580    90.00000    27.73272     4.57580
     0.60000    90.00000    24.32217     4.57478    90.00000    24.32217     4.57478
     0.70000    90.00000    20.03350     4.57347    90.00000    20.03350     4.57347
     0.80000    90.00000    16.58143     4.57245    90.00000    16.58143     4.57245
     0.90000    90.00000    10.50111     4.57095    90.00000    10.50111     4.57095
     1.00000    90.00000   360.00000     4.56982    90.00000   360.00000     4.56982
     1.10000    90.00000   360.00000     4.56980    90.00000   360.00000     4.56980
     1.20000    90.00000   360.00000     4.56979    90.00000   360.00000     4.56979
     1.30000    90.00000   360.00000     4.56977    90.00000   360.00000     4.56977
     1.40000    90.00000   360.00000     4.56976    90.00000   360.00000     4.56976
     1.50000    90.00000   360.00000     4.56975    90.00000   360.00000     4.56975
     1.60000    90.00000   360.00000     4.56973    90.00000   360.00000     4.56973
     1.70000    90.00000   360.00000     4.56972    90.00000   360.00000     4.56972
     1.80000    90.00000   360.00000     4.56970    90.00000   360.00000     4.56970
     1.90000    90.00000   360.00000     4.56969    90.00000   360.00000     4.56969
     2.00000    90.00000   360.00000     4.56967    90.00000   360.00000     4.56967
     2.10000    90.00000   360.00000     4.56966    90.00000   360.00000     4.56966
     2.20000    90.00000   360.00000     4.56965    90.00000   360.00000     4.56965
     2.30000    90.00000   360.00000     4.56963    90.00000   360.00000     4.56963
     2.40000    90.00000   360.00000     4.56962    90.00000   360.00000     4.56962
     2.50000    90.00000   360.00000     4.56960    90.00000   360.00000     4.56960
     2.60000    90.00000   360.00000     4.56959    90.00000   360.00000     4.56959
     2.70000    90.00000   360.00000     4.56957    90.00000   360.00000     4.56957
     2.80000    90.00000   360.00000     4.56956    90.00000   360.00000     4.56956
     2.90000    90.00000   360.00000     4.56955    90.00000   360.00000     4.56955
     3.00000    90.00000   360.00000     4.56953    90.00000   360.00000     4.56953
     3.10000    90.00000   360.00000     4.56952    90.00000   360.00000     4.56952
     3.20000    90.00000   360.00000     4.56950    90.00000   360.00000     4.56950
     3.30000    90.00000   360.00000     4.56949    90.00000   360.00000     4.56949
     3.40000    90.00000   360.00000     4.56947    90.00000   360.00000     4.56947
     3.50000    90.00000   360.00000     4.56946    90.00000   360.00000     4.56946
     3.60000    90.00000   360.00000     4.56945    90.00000   360.00000     4.56945
     3.70000    90.00000   360.00000     4.56943    90.00000   360.00000     4.56943
     3.80000    90.00000   360.00000     4.56942    90.00000   360.00000     4.56942
     3.90000    90.00000   360.00000     4.56940    90.00000   360.00000     4.56940
     4.00000    90.00000   360.00000     4.56939    90.00000   360.00000     4.56939
     4.10000    90.00000   360.00000     4.56937    90.00000   360.00000     4.56937
     4.20000    90.00000   360.00000     4.56936    90.00000   360.00000     4.56936
     4.30000    90.00000   360.00000     4.56934    90.00000   360.00000     4.56934
     4.40000    90.00000   360.00000     4.56933    90.00000   360.00000     4.56933
     4.50000    90.00000   360.00000     4.56932    90.00000   360.00000     4.56932
     4.60000    90.00000   360.00000     4.56930    90.00000   360.00000     4.56930
     4.70000    90.00000   360.00000     4.56929    90.00000   360.00000     4.56929
     4.80000    90.00000   360.00000     4.56927    90.00000   360.00000     4.56927
     4.90000    90.00000   360.00000     4.56926    90.00000   360.00000     4.56926
     5.00000    90.00000   360.00000     4.56924    90.00000   360.00000     4.56924
     5.10000    90.00000   360.00000     4.56923    90.00000   360.00000     4.56923
     5.20000    90.00000   360.00000     4.56921    90.00000   360.00000     4.56921
     5.30000    90.00000   360.00000     4.56920    90.00000   360.00000     4.56920
     5.40000    90.00000   360.00000     4.56919    90.00000   360.00000     4.56919
     5.50000    90.00000   360.00000     4.56917    90.00000   360.00000     4.56917
     5.60000    90.00000   360.00000     4.56916    90.00000   360.00000     4.56916
     5.70000    90.00000   360.00000     4.56914    90.00000   360.00000     4.56914
     5.80000    90.00000   360.00000     4.56913    90.00000   360.00000     4.56913
     5.90000    90.00000   360.00000     4.56911    90.00000   360.00000     4.56911
     6.00000    90.00000   360.00000     4.56910    90.00000   360.00000     4.56910
     6.10000    90.00000   360.00000     4.56908    90.00000   360.00000     4.56908
     6.20000    90.00000   360.00000     4.56907    90.00000   360.00000     4.56907
     6.30000    90.00000   360.00000     4.56905    90.00000   360.00000     4.56905
     6.40000    90.00000   360.00000     4.56904    90.00000   360.00000     4.56904
     6.50000    90.00000   360.00000     4.56902    90.00000   360.00000     4.56902
     6.60000    90.00000   360.00000     4.56901    90.00000   360.00000     4.56901
     6.70000    90.00000   360.00000     4.56900    90.00000   360.00000     4.56900
     6.80000    90.00000   360.00000     4.56898    90.00000   360.00000     4.56898
     6.90000    90.00000   360.00000     4.56897    90.00000   360.00000     4.56897
     7.00000    90.00000   360.00000     4.56895    90.00000   360.00000     4.56895
     7.10000    90.00000   360.00000     4.56894    90.00000   360.00000     4.56894
     7.20000    90.00000   360.00000     4.56892    90.00000   360.00000     4.56892
     7.30000    90.00000   360.00000     4.56891    90.00000   360.00000     4.56891
     7.40000    90.00000   360.00000     4.56889    90.00000   360.00000     4.56889
     7.50000    90.00000   360.00000     4.56888    90.00000   360.00000     4.56888
     7.60000    90.00000   360.00000     4.56886    90.00000   360.00000     4.56886
     7.70000    90.00000   360.00000     4.56885    90.00000   360.00000     4.56885
     7.80000    90.00000   360.00000     4.56883    90.00000   360.00000     4.56883
     7.90000    90.00000   360.00000     4.56882    90.00000   360.00000     4.56882
     8.00000    90.00000   360.00000     4.56880    90.00000   360.00000     4.56880
     8.10000    90.00000   360.00000     4.56879    90.00000   360.00000     4.56879
     8.20000    90.00000   360.00000     4.56877    90.00000   360.00000     4.56877
     8.30000    90.00000   360.00000     4.56876    90.00000   360.00000     4.56876
     8.40000    90.00000   360.00000     4.56874    90.00000   360.00000     4.56874
     8.50000    90.00000   360.00000     4.56873    90.00000   360.00000     4.56873
     8.60000    90.00000   360.00000     4.56872    90.00000   360.00000     4.56872
     8.70000    90.00000   360.00000     4.56870    90.00000   360.00000     4.56870
     8.80000    90.00000   360.00000     4.56869    90.00000   360.00000     4.56869
     8.90000    90.00000   360.00000     4.56867    90.00000   360.00000     4.56867
     9.00000    90.00000   360.00000     4.56866    90.00000   360.00000     4.56866
     9.10000    90.00000   360.00000     4.56864    90.00000   360.00000     4.56864
     9.20000    90.00000   360.00000     4.56863    90.00000   360.00000     4.56863
     9.30000    90.00000   360.00000     4.56861    90.00000   360.00000     4.56861
     9.40000    90.00000   360.00000     4.56860    90.00000   360.00000     4.56860
     9.50000    90.00000   360.00000     4.56858    90.00000   360.00000     4.56858
     9.60000    90.00000   360.00000     4.56857    90.00000   360.00000     4.56857
     9.70000    90.00000   360.00000     4.56855    90.00000   360.00000     4.56855
     9.80000    90.00000   360.00000     4.56854    90.00000   360.00000     4.56854
     9.90000    90.00000   360.00000     4.56852    90.00000   360.00000     4.56852
    10.00000    90.00000   360.00000     4.56851    90.00000   360.00000     4.56851
    10.10000    90.00000   360.00000     4.56849    90.00000   360.00000     4.56849
    10.20000    90.00000   360.00000     4.56848    90.00000   360.00000     4.56848
    10.30000    90.00000   360.00000     4.56846    90.00000   360.00000     4.56846
    10.40000    90.00000   360.00000     4.56845    90.00000   360.00000     4.56845
    10.50000    90.00000   360.00000     4.56843    90.00000   360.00000     4.56843
    10.60000    90.00000   360.00000     4.56842    90.00000   360.00000     4.56842
    10.70000    90.00000   360.00000     4.56840    90.00000   360.00000     4.56840
    10.80000    90.00000   360.00000     4.56839    90.00000   360.00000     4.56839
    10.90000    90.00000   360.00000     4.56837    90.00000   360.00000     4.56837
    11.00000    90.00000   360.00000     4.56836    90.00000   360.00000     4.56836
    11.10000    90.00000   360.00000     4.56834    90.00000   360.00000     4.56834
    11.20000    90.00000   360.00000     4.56833    90.00000   360.00000     4.56833
    11.30000    90.00000   360.00000     4.56831    90.00000   360.00000     4.56831
    11.40000    90.00000   360.00000     4.56830    90.00000   360.00000     4.56830
    11.50000    90.00000   360.00000     4.56828    90.00000   360.00000     4.56828
    11.60000    90.00000   360.00000     4.56827    90.00000   360.00000     4.56827
    11.70000    90.00000   360.00000     4.56825    90.00000   360.00000     4.56825
    11.80000    90.00000   360.00000     4.56824    90.00000   360.00000     4.56824
    11.90000    90.00000   360.00000     4.56822    90.00000   360.00000     4.56822
    12.00000    90.00000   360.00000     4.56821    90.00000   360.00000     4.56821
    12.10000    90.00000   360.00000     4.56819    90.00000   360.00000     4.56819
    12.20000    90.00000   360.00000     4.56818    90.00000   360.00000     4.56818
    12.30000    90.00000   360.00000     4.56816    90.00000   360.00000     4.56816
    12.40000    90.00000   360.00000     4.56815    90.00000   360.00000     4.56815
    12.50000    90.00000   360.00000     4.56813    90.00000   360.00000     4.56813
    12.60000    90.00000   360.00000     4.56812    90.00000   360.00000     4.56812
    12.70000    90.00000   360.00000     4.56810    90.00000   360.00000     4.56810
    12.80000    90.00000   360.00000     4.56809    90.00000   360.00000     4.56809
    12.90000    90.00000   360.00000     4.56807    90.00000   360.00000     4.56807
    13.00000    90.00000   360.00000     4.56806    90.00000   360.00000     4.56806
    13.10000    90.00000   360.00000     4.56804    90.00000   360.00000     4.56804
    13.20000    90.00000   360.00000     4.56803    90.00000   360.00000     4.56803
    13.30000    90.00000   360.00000     4.56801    90.00000   360.00000     4.56801
    13.40000    90.00000   360.00000     4.56799    90.00000   360.00000     4.56799
    13.50000    90.00000   360.00000     4.56798    90.00000   360.00000     4.56798
    13.60000    90.00000   360.00000     4.56796    90.00000   360.00000     4.56796
    13.70000    90.00000   360.00000     4.56795    90.00000   360.00000     4.56795
    13.80000    90.00000   360.00000     4.56793    90.00000   360.00000     4.56793
    13.90000    90.00000   360.00000     4.56792    90.00000   360.00000     4.56792
    14.00000    90.00000   360.00000     4.56790    90.00000   360.00000     4.56790
    14.10000    90.00000   360.00000     4.56789    90.00000   360.00000     4.56789
    14.20000    90.00000   360.00000     4.56787    90.00000   360.00000     4.56787
    14.30000    90.00000   360.00000     4.56786    90.00000   360.00000     4.56786
    14.40000    90.00000   360.00000     4.56784    90.00000   360.00000     4.56784
    14.50000    90.00000   360.00000     4.56783    90.00000   360.00000     4.56783
    14.60000    90.00000   360.00000     4.56781    90.00000   360.00000     4.56781
    14.70000    90.00000   360.00000     4.56780    90.00000   360.00000     4.56780
    14.80000    90.00000   360.00000     4.56778    90.00000   360.00000     4.56778
    14.90000    90.00000   360.00000     4.56777    90.00000   360.00000     4.56777
    15.00000    90.00000   360.00000     4.56775    90.00000   360.00000     4.56775
    15.10000    90.00000   360.00000     4.56774    90.00000   360.00000     4.56774
    15.20000    90.00000   360.00000     4.56772    90.00000   360.00000     4.56772
    15.30000    90.00000   360.00000     4.56770    90.00000   360.00000     4.56770
    15.40000    90.00000   360.00000     4.56769    90.00000   360.00000     4.56769
    15.50000    90.00000   360.00000     4.56767    90.00000   360.00000     4.56767
    15.60000    90.00000   360.00000     4.56766    90.00000   360.00000     4.56766
    15.70000    90.00000   360.00000     4.56764    90.00000   360.00000     4.56764
    15.80000    90.00000   360.00000     4.56763    90.00000   360.00000     4.56763
    15.90000    90.00000   360.00000     4.56761    90.00000   360.00000     4.56761
    16.00000    90.00000   360.00000     4.56760    90.00000   360.00000     4.56760
    16.10000    90.00000   360.00000     4.56758    90.00000   360.00000     4.56758
    16.20000    90.00000   360.00000     4.56757    90.00000   360.00000     4.56757
    16.30000    90.00000   360.00000     4.56755    90.00000   360.00000     4.56755
    16.40000    90.00000   360.00000     4.56754    90.00000   360.00000     4.56754
    16.50000    90.00000   360.00000     4.56752    90.00000   360.00000     4.56752
    16.60000    90.00000   360.00000     4.56750    90.00000   360.00000     4.56750
    16.70000    90.00000   360.00000     4.56749    90.00000   360.00000     4.56749
    16.80000    90.00000   360.00000     4.56747    90.00000   360.00000     4.56747
    16.90000    90.00000   360.00000     4.56746    90.00000   360.00000     4.56746
    17.00000    90.00000   360.00000     4.56744    90.00000   360.00000     4.56744
    17.10000    90.00000   360.00000     4.56743    90.00000   360.00000     4.56743
    17.20000    90.00000   360.00000     4.56741    90.00000   360.00000     4.56741
    17.30000    90.00000   360.00000     4.56740    90.00000   360.00000     4.56740
    17.40000    90.00000   360.00000     4.56738    90.00000   360.00000     4.56738
    17.50000    90.00000   360.00000     4.56736    90.00000   360.00000     4.56736
    17.60000    90.00000   360.00000     4.56735    90.00000   360.00000     4.56735
    17.70000    90.00000   360.00000     4.56733    90.00000   360.00000     4.56733
    17.80000    90.00000   360.00000     4.56732    90.00000   360.00000     4.56732
    17.90000    90.00000   360.00000     4.56730    90.00000   360.00000     4.56730
    18.00000    90.00000   360.00000     4.56729    90.00000   360.00000     4.56729
    18.10000    90.00000   360.00000     4.56727    90.00000   360.00000     4.56727
    18.20000    90.00000   360.00000     4.56726    90.00000   360.00000     4.56726
    18.30000    90.00000   360.00000     4.56724    90.00000   360.00000     4.56724
    18.40000    90.00000   360.00000     4.56722    90.00000   360.00000     4.56722
    18.50000    90.00000   360.00000     4.56721    90.00000   360.00000     4.56721
    18.60000    90.00000   360.00000     4.56719    90.00000   360.00000     4.56719
    18.70000    90.00000   360.00000     4.56718    90.00000   360.00000     4.56718
    18.80000    90.00000   360.00000     4.56716    90.00000   360.00000     4.56716
    18.90000    90.00000   360.00000     4.56715    90.00000   360.00000     4.56715
    19.00000    90.00000   360.00000     4.56713    90.00000   360.00000     4.56713
    19.10000    90.00000   360.00000     4.56712    90.00000   360.00000     4.56712
    19.20000    90.00000   360.00000     4.56710    90.00000   360.00000     4.56710
    19.30000    90.00000   360.00000     4.56708    90.00000   360.00000     4.56708
    19.40000    90.00000   360.00000     4.56707    90.00000   360.00000     4.56707
    19.50000    90.00000   360.00000     4.56705    90.00000   360.00000     4.56705
    19.60000    90.00000   360.00000     4.56704    90.00000   360.00000     4.56704
    19.70000    90.00000   360.00000     4.56702    90.00000   360.00000     4.56702
    19.80000    90.00000   360.00000     4.56701    90.00000   360.00000     4.56701
    19.90000    90.00000   360.00000     4.56699    90.00000   360.00000     4.56699
    20.00000    90.00000   360.00000     4.56697    90.00000   360.00000     4.56697
    20.10000    90.00000   360.00000     4.56696    90.00000   360.00000     4.56696
    20.20000    90.00000   360.00000     4.56694    90.00000   360.00000     4.56694
    20.30000    90.00000   360.00000     4.56693    90.00000   360.00000     4.56693
    20.40000    90.00000   360.00000     4.56691    90.00000   360.00000     4.56691
    20.50000    90.00000   360.00000     4.56690    90.00000   360.00000     4.56690
    20.60000    90.00000   360.00000     4.56688    90.00000   360.00000     4.56688
    20.70000    90.00000   360.00000     4.56686    90.00000   360.00000     4.56686
    20.80000    90.00000   360.00000     4.56685    90.00000   360.00000     4.56685
    20.90000    90.00000   360.00000     4.56683    90.00000   360.00000     4.56683
    21.00000    90.00000   360.00000     4.56682    90.00000   360.00000     4.56682
    21.10000    90.00000   360.00000     4.56680    90.00000   360.00000     4.56680
    21.20000    90.00000   360.00000     4.56678    90.00000   360.00000     4.56678
    21.30000    90.00000   360.00000     4.56677    90.00000   360.00000     4.56677
    21.40000    90.00000   360.00000     4.56675    90.00000   360.00000     4.56675
    21.50000    90.00000   360.00000     4.56674    90.00000   360.00000     4.56674
    21.60000    90.00000   360.00000     4.56672    90.00000   360.00000     4.56672
    21.70000    90.00000   360.00000     4.56671    90.00000   360.00000     4.56671
    21.80000    90.00000   360.00000     4.56669    90.00000   360.00000     4.56669
    21.90000    90.00000   360.00000     4.56667    90.00000   360.00000     4.56667
    22.00000    90.00000   360.00000     4.56666    90.00000   360.00000     4.56666
    22.10000    90.00000   360.00000     4.56664    90.00000   360.00000     4.56664
    22.20000    90.00000   360.00000     4.56663    90.00000   360.00000     4.56663
    22.30000    90.00000   360.00000     4.56661    90.00000   360.00000     4.56661
    22.40000    90.00000   360.00000     4.56659    90.00000   360.00000     4.56659
    22.50000    90.00000   360.00000     4.56658    90.00000   360.00000     4.56658
    22.60000    90.00000   360.00000     4.56656    90.00000   360.00000     4.56656
    22.70000    90.00000   360.00000     4.56655    90.00000   360.00000     4.56655
    22.80000    90.00000   360.00000     4.56653    90.00000   360.00000     4.56653
    22.90000    90.00000   360.00000     4.56651    90.00000   360.00000     4.56651
    23.00000    90.00000   360.00000     4.56650    90.00000   360.00000     4.56650
    23.10000    90.00000   360.00000     4.56648    90.00000   360.00000     4.56648
    23.20000    90.00000   360.00000     4.56647    90.00000   360.00000     4.56647
    23.30000    90.00000   360.00000     4.56645    90.00000   360.00000     4.56645
    23.40000    90.00000   360.00000     4.56643    90.00000   360.00000     4.56643
    23.50000    90.00000   360.00000     4.56642    90.00000   360.00000     4.56642
    23.60000    90.00000   360.00000     4.56640    90.00000   360.00000     4.56640
    23.70000    90.00000   360.00000     4.56639    90.00000   360.00000     4.56639
    23.80000    90.00000   360.00000     4.56637    90.00000   360.00000     4.56637
    23.90000    90.00000   360.00000     4.56635    90.00000   360.00000     4.56635
    24.00000    90.00000   360.00000     4.56634    90.00000   360.00000     4.56634
    24.10000    90.00000   360.00000     4.56632    90.00000   360.00000     4.56632
    24.20000    90.00000   360.00000     4.56631    90.00000   360.00000     4.56631
    24.30000    90.00000   360.00000     4.56629    90.00000   360.00000     4.56629
    24.40000    90.00000   360.00000     4.56627    90.00000   360.00000     4.56627
    24.50000    90.00000   360.00000     4.56626    90.00000   360.00000     4.56626
    24.60000    90.00000   360.00000     4.56624    90.00000   360.00000     4.56624
    24.70000    90.00000   360.00000     4.56623    90.00000   360.00000     4.56623
    24.80000    90.00000   360.00000     4.56621    90.00000   360.00000     4.56621
    24.90000    90.00000   360.00000     4.56619    90.00000   360.00000     4.56619
    25.00000    90.00000   360.00000     4.56618    90.00000   360.00000     4.56618
    25.10000    90.00000   360.00000     4.56616    90.00000   360.00000     4.56616
    25.20000    90.00000   360.00000     4.56615    90.00000   360.00000     4.56615
    25.30000    90.00000   360.00000     4.56613    90.00000   360.00000     4.56613
    25.40000    90.00000   360.00000     4.56611    90.00000   360.00000     4.56611
    25.50000    90.00000   360.00000     4.56610    90.00000   360.00000     4.56610
    25.60000    90.00000   360.00000     4.56608    90.00000   360.00000     4.56608
    25.70000    90.00000   360.00000     4.56606    90.00000   360.00000     4.56606
    25.80000    90.00000   360.00000     4.56605    90.00000   360.00000     4.56605
    25.90000    90.00000   360.00000     4.56603    90.00000   360.00000     4.56603
    26.00000    90.00000   360.00000     4.56602    90.00000   360.00000     4.56602
    26.10000    90.00000   360.00000     4.56600    90.00000   360.00000     4.56600
    26.20000    90.00000   360.00000     4.56598    90.00000   360.00000     4.56598
    26.30000    90.00000   360.00000     4.56597    90.00000   360.00000     4.56597
    26.40000    90.00000   360.00000     4.56595    90.00000   360.00000     4.56595
    26.50000    90.00000   360.00000     4.56593    90.00000   360.00000     4.56593
    26.60000    90.00000   360.00000     4.56592    90.00000   360.00000     4.56592
    26.70000    90.00000   360.00000     4.56590    90.00000   360.00000     4.56590
    26.80000    90.00000   360.00000     4.56589    90.00000   360.00000     4.56589
    26.90000    90.00000   360.00000     4.56587    90.00000   360.00000     4.56587
    27.00000    90.00000   360.00000     4.56585    90.00000   360.00000     4.56585
    27.10000    90.00000   360.00000     4.56584    90.00000   360.00000     4.56584
    27.20000    90.00000   360.00000     4.56582    90.00000   360.00000     4.56582
    27.30000    90.00000   360.00000     4.56580    90.00000   360.00000     4.56580
    27.40000    90.00000   360.00000     4.56579    90.00000   360.00000     4.56579
    27.50000    90.00000   360.00000     4.56577    90.00000   360.00000     4.56577
    27.60000    90.00000   360.00000     4.56576    90.00000   360.00000     4.56576
    27.70000    90.00000   360.00000     4.56574    90.00000   360.00000     4.56574
    27.80000    90.00000   360.00000     4.56572    90.00000   360.00000     4.56572
    27.90000    90.00000   360.00000     4.56571    90.00000   360.00000     4.56571
    28.00000    90.00000   360.00000     4.56569    90.00000   360.00000     4.56569
    28.10000    90.00000   360.00000     4.56567    90.00000   360.00000     4.56567
    28.20000    90.00000   360.00000     4.56566    90.00000   360.00000     4.56566
    28.30000    90.00000   360.00000     4.56564    90.00000   360.00000     4.56564
    28.40000    90.00000   360.00000     4.56562    90.00000   360.00000     4.56562
    28.50000    90.00000   360.00000     4.56561    90.00000   360.00000     4.56561
    28.60000    90.00000   360.00000     4.56559    90.00000   360.00000     4.56559
    28.70000    90.00000   360.00000     4.56558    90.00000   360.00000     4.56558
    28.80000    90.00000   360.00000     4.56556    90.00000   360.00000     4.56556
    28.90000    90.00000   360.00000     4.56554    90.00000   360.00000     4.56554
    29.00000    90.00000   360.00000     4.56553    90.00000   360.00000     4.56553
    29.10000    90.00000   360.00000     4.56551    90.00000   360.00000     4.56551
    29.20000    90.00000   360.00000     4.56549    90.00000   360.00000     4.56549
    29.30000    90.00000   360.00000     4.56548    90.00000   360.00000     4.56548
    29.40000    90.00000   360.00000     4.56546    90.00000   360.00000     4.56546
    29.50000    90.00000   360.00000     4.56544    90.00000   360.00000     4.56544
    29.60000    90.00000   360.00000     4.56543    90.00000   360.00000     4.56543
    29.70000    90.00000   360.00000     4.56541    90.00000   360.00000     4.56541
    29.80000    90.00000   360.00000     4.56539    90.00000   360.00000     4.56539
    29.90000    90.00000   360.00000     4.56538    90.00000   360.00000     4.56538
    30.00000    90.00000   360.00000     4.56536    90.00000   360.00000     4.56536
    30.10000    90.00000   360.00000     4.56534    90.00000   360.00000     4.56534
    30.20000    90.00000   360.00000     4.56533    90.00000   360.00000     4.56533
    30.30000    90.00000   360.00000     4.56531    90.00000   360.00000     4.56531
    30.40000    90.00000   360.00000     4.56529    90.00000   360.00000     4.56529
    30.50000    90.00000   360.00000     4.56528    90.00000   360.00000     4.56528
    30.60000    90.00000   360.00000     4.56526    90.00000   360.00000     4.56526
    30.70000    90.00000   360.00000     4.56525    90.00000   360.00000     4.56525
    30.80000    90.00000   360.00000     4.56523    90.00000   360.00000     4.56523
    30.90000    90.00000   360.00000     4.56521    90.00000   360.00000     4.56521
    31.00000    90.00000   360.00000     4.56520    90.00000   360.00000     4.56520
    31.10000    90.00000   360.00000     4.56518    90.00000   360.00000     4.56518
    31.20000    90.00000   360.00000     4.56516    90.00000   360.00000     4.56516
    31.30000    90.00000   360.00000     4.56515    90.00000   360.00000     4.56515
    31.40000    90.00000   360.00000     4.56513    90.00000   360.00000     4.56513
    31.50000    90.00000   360.00000     4.56511    90.00000   360.00000     4.56511
    31.60000    90.00000   360.00000     4.56510    90.00000   360.00000     4.56510
    31.70000    90.00000   360.00000     4.56508    90.00000   360.00000     4.56508
    31.80000    90.00000   360.00000     4.56506    90.00000   360.00000     4.56506
    31.90000    90.00000   360.00000     4.56505    90.00000   360.00000     4.56505
    32.00000    90.00000   360.00000     4.56503    90.00000   360.00000     4.56503
    32.10000    90.00000   360.00000     4.56501    90.00000   360.00000     4.56501
    32.20000    90.00000   360.00000     4.56500    90.00000   360.00000     4.56500
    32.30000    90.00000   360.00000     4.56498    90.00000   360.00000     4.56498
    32.40000    90.00000   360.00000     4.56496    90.00000   360.00000     4.56496
    32.50000    90.00000   360.00000     4.56495    90.00000   360.00000     4.56495
    32.60000    90.00000   360.00000     4.56493    90.00000   360.00000     4.56493
    32.70000    90.00000   360.00000     4.56491    90.00000   360.00000     4.56491
    32.80000    90.00000   360.00000     4.56490    90.00000   360.00000     4.56490
    32.90000    90.00000   360.00000     4.56488    90.00000   360.00000     4.56488
    33.00000    90.00000   360.00000     4.56486    90.00000   360.00000     4.56486
    33.10000    90.00000   360.00000     4.56484    90.00000   360.00000     4.56484
    33.20000    90.00000   360.00000     4.56483    90.00000   360.00000     4.56483
    33.30000    90.00000   360.00000     4.56481    90.00000   360.00000     4.56481
    33.40000    90.00000   360.00000     4.56479    90.00000   360.00000     4.56479
    33.50000    90.00000   360.00000     4.56478    90.00000   360.00000     4.56478
    33.60000    90.00000   360.00000     4.56476    90.00000   360.00000     4.56476
    33.70000    90.00000   360.00000     4.56474    90.00000   360.00000     4.56474
    33.80000    90.00000   360.00000     4.56473    90.00000   360.00000     4.56473
    33.90000    90.00000   360.00000     4.56471    90.00000   360.00000     4.56471
    34.00000    90.00000   360.00000     4.56469    90.00000   360.00000     4.56469
    34.10000    90.00000   360.00000     4.56468    90.00000   360.00000     4.56468
    34.20000    90.00000   360.00000     4.56466    90.00000   360.00000     4.56466
    34.30000    90.00000   360.00000     4.56464    90.00000   360.00000     4.56464
    34.40000    90.00000   360.00000     4.56463    90.00000   360.00000     4.56463
    34.50000    90.00000   360.00000     4.56461    90.00000   360.00000     4.56461
    34.60000    90.00000   360.00000     4.56459    90.00000   360.00000     4.56459
    34.70000    90.00000   360.00000     4.56458    90.00000   360.00000     4.56458
    34.80000    90.00000   360.00000     4.56456    90.00000   360.00000     4.56456
    34.90000    90.00000   360.00000     4.56454    90.00000   360.00000     4.56454
    35.00000    90.00000   360.00000     4.56452    90.00000   360.00000     4.56452
    35.10000    90.00000   360.00000     4.56451    90.00000   360.00000     4.56451
    35.20000    90.00000   360.00000     4.56449    90.00000   360.00000     4.56449
    35.30000    90.00000   360.00000     4.56447    90.00000   360.00000     4.56447
    35.40000    90.00000   360.00000     4.56446    90.00000   360.00000     4.56446
    35.50000    90.00000   360.00000     4.56444    90.00000   360.00000     4.56444
    35.60000    90.00000   360.00000     4.56442    90.00000   360.00000     4.56442
    35.70000    90.00000   360.00000     4.56441    90.00000   360.00000     4.56441
    35.80000    90.00000   360.00000     4.56439    90.00000   360.00000     4.56439
    35.90000    90.00000   360.00000     4.56437    90.00000   360.00000     4.56437
    36.00000    90.00000   360.00000     4.56436    90.00000   360.00000     4.56436
    36.10000    90.00000   360.00000     4.56434    90.00000   360.00000     4.56434
    36.20000    90.00000   360.00000     4.56432    90.00000   360.00000     4.56432
    36.30000    90.00000   360.00000     4.56430    90.00000   360.00000     4.56430
    36.40000    90.00000   360.00000     4.56429    90.00000   360.00000     4.56429
    36.50000    90.00000   360.00000     4.56427    90.00000   360.00000     4.56427
    36.60000    90.00000   360.00000     4.56425    90.00000   360.00000     4.56425
    36.70000    90.00000   360.00000     4.56424    90.00000   360.00000     4.56424
    36.80000    90.00000   360.00000     4.56422    90.00000   360.00000     4.56422
    36.90000    90.00000   360.00000     4.56420    90.00000   360.00000     4.56420
    37.00000    90.00000   360.00000     4.56418    90.00000   360.00000     4.56418
    37.10000    90.00000   360.00000     4.56417    90.00000   360.00000     4.56417
    37.20000    90.00000   360.00000     4.56415    90.00000   360.00000     4.56415
    37.30000    90.00000   360.00000     4.56413    90.00000   360.00000     4.56413
    37.40000    90.00000   360.00000     4.56412    90.00000   360.00000     4.56412
    37.50000    90.00000   360.00000     4.56410    90.00000   360.00000     4.56410
    37.60000    90.00000   360.00000     4.56408    90.00000   360.00000     4.56408
    37.70000    90.00000   360.00000     4.56407    90.00000   360.00000     4.56407
    37.80000    90.00000   360.00000     4.56405    90.00000   360.00000     4.56405
    37.90000    90.00000   360.00000     4.56403    90.00000   360.00000     4.56403
    38.00000    90.00000   360.00000     4.56401    90.00000   360.00000     4.56401
    38.10000    90.00000   360.00000     4.56400    90.00000   360.00000     4.56400
    38.20000    90.00000   360.00000     4.56398    90.00000   360.00000     4.56398
    38.30000    90.00000   360.00000     4.56396    90.00000   360.00000     4.56396
    38.40000    90.00000   360.00000     4.56395    90.00000   360.00000     4.56395
    38.50000    90.00000   360.00000     4.56393    90.00000   360.00000     4.56393
    38.60000    90.00000   360.00000     4.56391    90.00000   360.00000     4.56391
    38.70000    90.00000   360.00000     4.56389    90.00000   360.00000     4.56389
    38.80000    90.00000   360.00000     4.56388    90.00000   360.00000     4.56388
    38.90000    90.00000   360.00000     4.56386    90.00000   360.00000     4.56386
    39.00000    90.00000   360.00000     4.56384    90.00000   360.00000     4.56384
    39.10000    90.00000   360.00000     4.56382    90.00000   360.00000     4.56382
    39.20000    90.00000   360.00000     4.56381    90.00000   360.00000     4.56381
    39.30000    90.00000   360.00000     4.56379    90.00000   360.00000     4.56379
    39.40000    90.00000   360.00000     4.56377    90.00000   360.00000     4.56377
    39.50000    90.00000   360.00000     4.56376    90.00000   360.00000     4.56376
    39.60000    90.00000   360.00000     4.56374    90.00000   360.00000     4.56374
    39.70000    90.00000   360.00000     4.56372    90.00000   360.00000     4.56372
    39.80000    90.00000   360.00000     4.56370    90.00000   360.00000     4.56370
    39.90000    90.00000   360.00000     4.56369    90.00000   360.00000     4.56369
    40.00000    90.00000   360.00000     4.56367    90.00000   360.00000     4.56367
