 # applied field (T), theta (degree), phi (degree), abs for RE 1-2
     0.00000    90.00000   225.42036     4.34728    90.00000   225.42036     4.34728
     0.10000    90.00000   222.05642     4.34717    90.00000   222.05642     4.34717
     0.20000    90.00000   219.53150     4.34695    90.00000   219.53150     4.34695
     0.30000    90.00000   216.15997     4.34649    90.00000   216.15997     4.34649
     0.40000    90.00000   213.62554     4.34603    90.00000   213.62554     4.34603
     0.50000    90.00000   211.08495     4.34548    90.00000   211.08495     4.34548
     0.60000    90.00000   208.53720     4.34486    90.00000   208.53720     4.34486
     0.70000    90.00000   205.98148     4.34419    90.00000   205.98148     4.34419
     0.80000    90.00000   203.41723     4.34349    90.00000   203.41723     4.34349
     0.90000    90.00000   200.84417     4.34278    90.00000   200.84417     4.34278
     1.00000    90.00000   197.39985     4.34186    90.00000   197.39985     4.34186
     1.10000    90.00000   193.94064     4.34102    90.00000   193.94064     4.34102
     1.20000    90.00000   189.59836     4.34015    90.00000   189.59836     4.34015
     1.30000    90.00000   180.00000     4.33929    90.00000   180.00000     4.33929
     1.40000    90.00000   180.00000     4.33925    90.00000   180.00000     4.33925
     1.50000    90.00000   180.00000     4.33921    90.00000   180.00000     4.33921
     1.60000    90.00000   180.00000     4.33917    90.00000   180.00000     4.33917
     1.70000    90.00000   180.00000     4.33913    90.00000   180.00000     4.33913
     1.80000    90.00000   180.00000     4.33909    90.00000   180.00000     4.33909
     1.90000    90.00000   180.00000     4.33905    90.00000   180.00000     4.33905
     2.00000    90.00000   180.00000     4.33901    90.00000   180.00000     4.33901
     2.10000    90.00000   180.00000     4.33896    90.00000   180.00000     4.33896
     2.20000    90.00000   180.00000     4.33892    90.00000   180.00000     4.33892
     2.30000    90.00000   180.00000     4.33888    90.00000   180.00000     4.33888
     2.40000    90.00000   180.00000     4.33884    90.00000   180.00000     4.33884
     2.50000    90.00000   180.00000     4.33880    90.00000   180.00000     4.33880
     2.60000    90.00000   180.00000     4.33876    90.00000   180.00000     4.33876
     2.70000    90.00000   180.00000     4.33872    90.00000   180.00000     4.33872
     2.80000    90.00000   180.00000     4.33868    90.00000   180.00000     4.33868
     2.90000    90.00000   180.00000     4.33864    90.00000   180.00000     4.33864
     3.00000    90.00000   180.00000     4.33860    90.00000   180.00000     4.33860
     3.10000    90.00000   180.00000     4.33855    90.00000   180.00000     4.33855
     3.20000    90.00000   180.00000     4.33851    90.00000   180.00000     4.33851
     3.30000    90.00000   180.00000     4.33847    90.00000   180.00000     4.33847
     3.40000    90.00000   180.00000     4.33843    90.00000   180.00000     4.33843
     3.50000    90.00000   180.00000     4.33839    90.00000   180.00000     4.33839
     3.60000    90.00000   180.00000     4.33835    90.00000   180.00000     4.33835
     3.70000    90.00000   180.00000     4.33831    90.00000   180.00000     4.33831
     3.80000    90.00000   180.00000     4.33827    90.00000   180.00000     4.33827
     3.90000    90.00000   180.00000     4.33823    90.00000   180.00000     4.33823
     4.00000    90.00000   180.00000     4.33818    90.00000   180.00000     4.33818
     4.10000    90.00000   180.00000     4.33814    90.00000   180.00000     4.33814
     4.20000    90.00000   180.00000     4.33810    90.00000   180.00000     4.33810
     4.30000    90.00000   180.00000     4.33806    90.00000   180.00000     4.33806
     4.40000    90.00000   180.00000     4.33802    90.00000   180.00000     4.33802
     4.50000    90.00000   180.00000     4.33798    90.00000   180.00000     4.33798
     4.60000    90.00000   180.00000     4.33794    90.00000   180.00000     4.33794
     4.70000    90.00000   180.00000     4.33790    90.00000   180.00000     4.33790
     4.80000    90.00000   180.00000     4.33786    90.00000   180.00000     4.33786
     4.90000    90.00000   180.00000     4.33781    90.00000   180.00000     4.33781
     5.00000    90.00000   180.00000     4.33777    90.00000   180.00000     4.33777
     5.10000    90.00000   180.00000     4.33773    90.00000   180.00000     4.33773
     5.20000    90.00000   180.00000     4.33769    90.00000   180.00000     4.33769
     5.30000    90.00000   180.00000     4.33765    90.00000   180.00000     4.33765
     5.40000    90.00000   180.00000     4.33761    90.00000   180.00000     4.33761
     5.50000    90.00000   180.00000     4.33757    90.00000   180.00000     4.33757
     5.60000    90.00000   180.00000     4.33753    90.00000   180.00000     4.33753
     5.70000    90.00000   180.00000     4.33748    90.00000   180.00000     4.33748
     5.80000    90.00000   180.00000     4.33744    90.00000   180.00000     4.33744
     5.90000    90.00000   180.00000     4.33740    90.00000   180.00000     4.33740
     6.00000    90.00000   180.00000     4.33736    90.00000   180.00000     4.33736
     6.10000    90.00000   180.00000     4.33732    90.00000   180.00000     4.33732
     6.20000    90.00000   180.00000     4.33728    90.00000   180.00000     4.33728
     6.30000    90.00000   180.00000     4.33724    90.00000   180.00000     4.33724
     6.40000    90.00000   180.00000     4.33720    90.00000   180.00000     4.33720
     6.50000    90.00000   180.00000     4.33715    90.00000   180.00000     4.33715
     6.60000    90.00000   180.00000     4.33711    90.00000   180.00000     4.33711
     6.70000    90.00000   180.00000     4.33707    90.00000   180.00000     4.33707
     6.80000    90.00000   180.00000     4.33703    90.00000   180.00000     4.33703
     6.90000    90.00000   180.00000     4.33699    90.00000   180.00000     4.33699
     7.00000    90.00000   180.00000     4.33695    90.00000   180.00000     4.33695
     7.10000    90.00000   180.00000     4.33691    90.00000   180.00000     4.33691
     7.20000    90.00000   180.00000     4.33687    90.00000   180.00000     4.33687
     7.30000    90.00000   180.00000     4.33682    90.00000   180.00000     4.33682
     7.40000    90.00000   180.00000     4.33678    90.00000   180.00000     4.33678
     7.50000    90.00000   180.00000     4.33674    90.00000   180.00000     4.33674
     7.60000    90.00000   180.00000     4.33670    90.00000   180.00000     4.33670
     7.70000    90.00000   180.00000     4.33666    90.00000   180.00000     4.33666
     7.80000    90.00000   180.00000     4.33662    90.00000   180.00000     4.33662
     7.90000    90.00000   180.00000     4.33658    90.00000   180.00000     4.33658
     8.00000    90.00000   180.00000     4.33653    90.00000   180.00000     4.33653
     8.10000    90.00000   180.00000     4.33649    90.00000   180.00000     4.33649
     8.20000    90.00000   180.00000     4.33645    90.00000   180.00000     4.33645
     8.30000    90.00000   180.00000     4.33641    90.00000   180.00000     4.33641
     8.40000    90.00000   180.00000     4.33637    90.00000   180.00000     4.33637
     8.50000    90.00000   180.00000     4.33633    90.00000   180.00000     4.33633
     8.60000    90.00000   180.00000     4.33629    90.00000   180.00000     4.33629
     8.70000    90.00000   180.00000     4.33624    90.00000   180.00000     4.33624
     8.80000    90.00000   180.00000     4.33620    90.00000   180.00000     4.33620
     8.90000    90.00000   180.00000     4.33616    90.00000   180.00000     4.33616
     9.00000    90.00000   180.00000     4.33612    90.00000   180.00000     4.33612
     9.10000    90.00000   180.00000     4.33608    90.00000   180.00000     4.33608
     9.20000    90.00000   180.00000     4.33604    90.00000   180.00000     4.33604
     9.30000    90.00000   180.00000     4.33600    90.00000   180.00000     4.33600
     9.40000    90.00000   180.00000     4.33595    90.00000   180.00000     4.33595
     9.50000    90.00000   180.00000     4.33591    90.00000   180.00000     4.33591
     9.60000    90.00000   180.00000     4.33587    90.00000   180.00000     4.33587
     9.70000    90.00000   180.00000     4.33583    90.00000   180.00000     4.33583
     9.80000    90.00000   180.00000     4.33579    90.00000   180.00000     4.33579
     9.90000    90.00000   180.00000     4.33575    90.00000   180.00000     4.33575
    10.00000    90.00000   180.00000     4.33571    90.00000   180.00000     4.33571
    10.10000    90.00000   180.00000     4.33566    90.00000   180.00000     4.33566
    10.20000    90.00000   180.00000     4.33562    90.00000   180.00000     4.33562
    10.30000    90.00000   180.00000     4.33558    90.00000   180.00000     4.33558
    10.40000    90.00000   180.00000     4.33554    90.00000   180.00000     4.33554
    10.50000    90.00000   180.00000     4.33550    90.00000   180.00000     4.33550
    10.60000    90.00000   180.00000     4.33546    90.00000   180.00000     4.33546
    10.70000    90.00000   180.00000     4.33541    90.00000   180.00000     4.33541
    10.80000    90.00000   180.00000     4.33537    90.00000   180.00000     4.33537
    10.90000    90.00000   180.00000     4.33533    90.00000   180.00000     4.33533
    11.00000    90.00000   180.00000     4.33529    90.00000   180.00000     4.33529
    11.10000    90.00000   180.00000     4.33525    90.00000   180.00000     4.33525
    11.20000    90.00000   180.00000     4.33521    90.00000   180.00000     4.33521
    11.30000    90.00000   180.00000     4.33516    90.00000   180.00000     4.33516
    11.40000    90.00000   180.00000     4.33512    90.00000   180.00000     4.33512
    11.50000    90.00000   180.00000     4.33508    90.00000   180.00000     4.33508
    11.60000    90.00000   180.00000     4.33504    90.00000   180.00000     4.33504
    11.70000    90.00000   180.00000     4.33500    90.00000   180.00000     4.33500
    11.80000    90.00000   180.00000     4.33496    90.00000   180.00000     4.33496
    11.90000    90.00000   180.00000     4.33491    90.00000   180.00000     4.33491
    12.00000    90.00000   180.00000     4.33487    90.00000   180.00000     4.33487
    12.10000    90.00000   180.00000     4.33483    90.00000   180.00000     4.33483
    12.20000    90.00000   180.00000     4.33479    90.00000   180.00000     4.33479
    12.30000    90.00000   180.00000     4.33475    90.00000   180.00000     4.33475
    12.40000    90.00000   180.00000     4.33471    90.00000   180.00000     4.33471
    12.50000    90.00000   180.00000     4.33466    90.00000   180.00000     4.33466
    12.60000    90.00000   180.00000     4.33462    90.00000   180.00000     4.33462
    12.70000    90.00000   180.00000     4.33458    90.00000   180.00000     4.33458
    12.80000    90.00000   180.00000     4.33454    90.00000   180.00000     4.33454
    12.90000    90.00000   180.00000     4.33450    90.00000   180.00000     4.33450
    13.00000    90.00000   180.00000     4.33446    90.00000   180.00000     4.33446
    13.10000    90.00000   180.00000     4.33441    90.00000   180.00000     4.33441
    13.20000    90.00000   180.00000     4.33437    90.00000   180.00000     4.33437
    13.30000    90.00000   180.00000     4.33433    90.00000   180.00000     4.33433
    13.40000    90.00000   180.00000     4.33429    90.00000   180.00000     4.33429
    13.50000    90.00000   180.00000     4.33425    90.00000   180.00000     4.33425
    13.60000    90.00000   180.00000     4.33421    90.00000   180.00000     4.33421
    13.70000    90.00000   180.00000     4.33416    90.00000   180.00000     4.33416
    13.80000    90.00000   180.00000     4.33412    90.00000   180.00000     4.33412
    13.90000    90.00000   180.00000     4.33408    90.00000   180.00000     4.33408
    14.00000    90.00000   180.00000     4.33404    90.00000   180.00000     4.33404
    14.10000    90.00000   180.00000     4.33400    90.00000   180.00000     4.33400
    14.20000    90.00000   180.00000     4.33395    90.00000   180.00000     4.33395
    14.30000    90.00000   180.00000     4.33391    90.00000   180.00000     4.33391
    14.40000    90.00000   180.00000     4.33387    90.00000   180.00000     4.33387
    14.50000    90.00000   180.00000     4.33383    90.00000   180.00000     4.33383
    14.60000    90.00000   180.00000     4.33379    90.00000   180.00000     4.33379
    14.70000    90.00000   180.00000     4.33375    90.00000   180.00000     4.33375
    14.80000    90.00000   180.00000     4.33370    90.00000   180.00000     4.33370
    14.90000    90.00000   180.00000     4.33366    90.00000   180.00000     4.33366
    15.00000    90.00000   180.00000     4.33362    90.00000   180.00000     4.33362
    15.10000    90.00000   180.00000     4.33358    90.00000   180.00000     4.33358
    15.20000    90.00000   180.00000     4.33354    90.00000   180.00000     4.33354
    15.30000    90.00000   180.00000     4.33349    90.00000   180.00000     4.33349
    15.40000    90.00000   180.00000     4.33345    90.00000   180.00000     4.33345
    15.50000    90.00000   180.00000     4.33341    90.00000   180.00000     4.33341
    15.60000    90.00000   180.00000     4.33337    90.00000   180.00000     4.33337
    15.70000    90.00000   180.00000     4.33333    90.00000   180.00000     4.33333
    15.80000    90.00000   180.00000     4.33328    90.00000   180.00000     4.33328
    15.90000    90.00000   180.00000     4.33324    90.00000   180.00000     4.33324
    16.00000    90.00000   180.00000     4.33320    90.00000   180.00000     4.33320
    16.10000    90.00000   180.00000     4.33316    90.00000   180.00000     4.33316
    16.20000    90.00000   180.00000     4.33312    90.00000   180.00000     4.33312
    16.30000    90.00000   180.00000     4.33307    90.00000   180.00000     4.33307
    16.40000    90.00000   180.00000     4.33303    90.00000   180.00000     4.33303
    16.50000    90.00000   180.00000     4.33299    90.00000   180.00000     4.33299
    16.60000    90.00000   180.00000     4.33295    90.00000   180.00000     4.33295
    16.70000    90.00000   180.00000     4.33291    90.00000   180.00000     4.33291
    16.80000    90.00000   180.00000     4.33287    90.00000   180.00000     4.33287
    16.90000    90.00000   180.00000     4.33282    90.00000   180.00000     4.33282
    17.00000    90.00000   180.00000     4.33278    90.00000   180.00000     4.33278
    17.10000    90.00000   180.00000     4.33274    90.00000   180.00000     4.33274
    17.20000    90.00000   180.00000     4.33270    90.00000   180.00000     4.33270
    17.30000    90.00000   180.00000     4.33266    90.00000   180.00000     4.33266
    17.40000    90.00000   180.00000     4.33261    90.00000   180.00000     4.33261
    17.50000    90.00000   180.00000     4.33257    90.00000   180.00000     4.33257
    17.60000    90.00000   180.00000     4.33253    90.00000   180.00000     4.33253
    17.70000    90.00000   180.00000     4.33249    90.00000   180.00000     4.33249
    17.80000    90.00000   180.00000     4.33244    90.00000   180.00000     4.33244
    17.90000    90.00000   180.00000     4.33240    90.00000   180.00000     4.33240
    18.00000    90.00000   180.00000     4.33236    90.00000   180.00000     4.33236
    18.10000    90.00000   180.00000     4.33232    90.00000   180.00000     4.33232
    18.20000    90.00000   180.00000     4.33228    90.00000   180.00000     4.33228
    18.30000    90.00000   180.00000     4.33223    90.00000   180.00000     4.33223
    18.40000    90.00000   180.00000     4.33219    90.00000   180.00000     4.33219
    18.50000    90.00000   180.00000     4.33215    90.00000   180.00000     4.33215
    18.60000    90.00000   180.00000     4.33211    90.00000   180.00000     4.33211
    18.70000    90.00000   180.00000     4.33207    90.00000   180.00000     4.33207
    18.80000    90.00000   180.00000     4.33202    90.00000   180.00000     4.33202
    18.90000    90.00000   180.00000     4.33198    90.00000   180.00000     4.33198
    19.00000    90.00000   180.00000     4.33194    90.00000   180.00000     4.33194
    19.10000    90.00000   180.00000     4.33190    90.00000   180.00000     4.33190
    19.20000    90.00000   180.00000     4.33186    90.00000   180.00000     4.33186
    19.30000    90.00000   180.00000     4.33181    90.00000   180.00000     4.33181
    19.40000    90.00000   180.00000     4.33177    90.00000   180.00000     4.33177
    19.50000    90.00000   180.00000     4.33173    90.00000   180.00000     4.33173
    19.60000    90.00000   180.00000     4.33169    90.00000   180.00000     4.33169
    19.70000    90.00000   180.00000     4.33164    90.00000   180.00000     4.33164
    19.80000    90.00000   180.00000     4.33160    90.00000   180.00000     4.33160
    19.90000    90.00000   180.00000     4.33156    90.00000   180.00000     4.33156
    20.00000    90.00000   180.00000     4.33152    90.00000   180.00000     4.33152
    20.10000    90.00000   180.00000     4.33148    90.00000   180.00000     4.33148
    20.20000    90.00000   180.00000     4.33143    90.00000   180.00000     4.33143
    20.30000    90.00000   180.00000     4.33139    90.00000   180.00000     4.33139
    20.40000    90.00000   180.00000     4.33135    90.00000   180.00000     4.33135
    20.50000    90.00000   180.00000     4.33131    90.00000   180.00000     4.33131
    20.60000    90.00000   180.00000     4.33126    90.00000   180.00000     4.33126
    20.70000    90.00000   180.00000     4.33122    90.00000   180.00000     4.33122
    20.80000    90.00000   180.00000     4.33118    90.00000   180.00000     4.33118
    20.90000    90.00000   180.00000     4.33114    90.00000   180.00000     4.33114
    21.00000    90.00000   180.00000     4.33110    90.00000   180.00000     4.33110
    21.10000    90.00000   180.00000     4.33105    90.00000   180.00000     4.33105
    21.20000    90.00000   180.00000     4.33101    90.00000   180.00000     4.33101
    21.30000    90.00000   180.00000     4.33097    90.00000   180.00000     4.33097
    21.40000    90.00000   180.00000     4.33093    90.00000   180.00000     4.33093
    21.50000    90.00000   180.00000     4.33088    90.00000   180.00000     4.33088
    21.60000    90.00000   180.00000     4.33084    90.00000   180.00000     4.33084
    21.70000    90.00000   180.00000     4.33080    90.00000   180.00000     4.33080
    21.80000    90.00000   180.00000     4.33076    90.00000   180.00000     4.33076
    21.90000    90.00000   180.00000     4.33071    90.00000   180.00000     4.33071
    22.00000    90.00000   180.00000     4.33067    90.00000   180.00000     4.33067
    22.10000    90.00000   180.00000     4.33063    90.00000   180.00000     4.33063
    22.20000    90.00000   180.00000     4.33059    90.00000   180.00000     4.33059
    22.30000    90.00000   180.00000     4.33054    90.00000   180.00000     4.33054
    22.40000    90.00000   180.00000     4.33050    90.00000   180.00000     4.33050
    22.50000    90.00000   180.00000     4.33046    90.00000   180.00000     4.33046
    22.60000    90.00000   180.00000     4.33042    90.00000   180.00000     4.33042
    22.70000    90.00000   180.00000     4.33038    90.00000   180.00000     4.33038
    22.80000    90.00000   180.00000     4.33033    90.00000   180.00000     4.33033
    22.90000    90.00000   180.00000     4.33029    90.00000   180.00000     4.33029
    23.00000    90.00000   180.00000     4.33025    90.00000   180.00000     4.33025
    23.10000    90.00000   180.00000     4.33021    90.00000   180.00000     4.33021
    23.20000    90.00000   180.00000     4.33016    90.00000   180.00000     4.33016
    23.30000    90.00000   180.00000     4.33012    90.00000   180.00000     4.33012
    23.40000    90.00000   180.00000     4.33008    90.00000   180.00000     4.33008
    23.50000    90.00000   180.00000     4.33004    90.00000   180.00000     4.33004
    23.60000    90.00000   180.00000     4.32999    90.00000   180.00000     4.32999
    23.70000    90.00000   180.00000     4.32995    90.00000   180.00000     4.32995
    23.80000    90.00000   180.00000     4.32991    90.00000   180.00000     4.32991
    23.90000    90.00000   180.00000     4.32987    90.00000   180.00000     4.32987
    24.00000    90.00000   180.00000     4.32982    90.00000   180.00000     4.32982
    24.10000    90.00000   180.00000     4.32978    90.00000   180.00000     4.32978
    24.20000    90.00000   180.00000     4.32974    90.00000   180.00000     4.32974
    24.30000    90.00000   180.00000     4.32970    90.00000   180.00000     4.32970
    24.40000    90.00000   180.00000     4.32965    90.00000   180.00000     4.32965
    24.50000    90.00000   180.00000     4.32961    90.00000   180.00000     4.32961
    24.60000    90.00000   180.00000     4.32957    90.00000   180.00000     4.32957
    24.70000    90.00000   180.00000     4.32953    90.00000   180.00000     4.32953
    24.80000    90.00000   180.00000     4.32948    90.00000   180.00000     4.32948
    24.90000    90.00000   180.00000     4.32944    90.00000   180.00000     4.32944
    25.00000    90.00000   180.00000     4.32940    90.00000   180.00000     4.32940
    25.10000    90.00000   180.00000     4.32936    90.00000   180.00000     4.32936
    25.20000    90.00000   180.00000     4.32931    90.00000   180.00000     4.32931
    25.30000    90.00000   180.00000     4.32927    90.00000   180.00000     4.32927
    25.40000    90.00000   180.00000     4.32923    90.00000   180.00000     4.32923
    25.50000    90.00000   180.00000     4.32919    90.00000   180.00000     4.32919
    25.60000    90.00000   180.00000     4.32914    90.00000   180.00000     4.32914
    25.70000    90.00000   180.00000     4.32910    90.00000   180.00000     4.32910
    25.80000    90.00000   180.00000     4.32906    90.00000   180.00000     4.32906
    25.90000    90.00000   180.00000     4.32901    90.00000   180.00000     4.32901
    26.00000    90.00000   180.00000     4.32897    90.00000   180.00000     4.32897
    26.10000    90.00000   180.00000     4.32893    90.00000   180.00000     4.32893
    26.20000    90.00000   180.00000     4.32889    90.00000   180.00000     4.32889
    26.30000    90.00000   180.00000     4.32884    90.00000   180.00000     4.32884
    26.40000    90.00000   180.00000     4.32880    90.00000   180.00000     4.32880
    26.50000    90.00000   180.00000     4.32876    90.00000   180.00000     4.32876
    26.60000    90.00000   180.00000     4.32872    90.00000   180.00000     4.32872
    26.70000    90.00000   180.00000     4.32867    90.00000   180.00000     4.32867
    26.80000    90.00000   180.00000     4.32863    90.00000   180.00000     4.32863
    26.90000    90.00000   180.00000     4.32859    90.00000   180.00000     4.32859
    27.00000    90.00000   180.00000     4.32855    90.00000   180.00000     4.32855
    27.10000    90.00000   180.00000     4.32850    90.00000   180.00000     4.32850
    27.20000    90.00000   180.00000     4.32846    90.00000   180.00000     4.32846
    27.30000    90.00000   180.00000     4.32842    90.00000   180.00000     4.32842
    27.40000    90.00000   180.00000     4.32837    90.00000   180.00000     4.32837
    27.50000    90.00000   180.00000     4.32833    90.00000   180.00000     4.32833
    27.60000    90.00000   180.00000     4.32829    90.00000   180.00000     4.32829
    27.70000    90.00000   180.00000     4.32825    90.00000   180.00000     4.32825
    27.80000    90.00000   180.00000     4.32820    90.00000   180.00000     4.32820
    27.90000    90.00000   180.00000     4.32816    90.00000   180.00000     4.32816
    28.00000    90.00000   180.00000     4.32812    90.00000   180.00000     4.32812
    28.10000    90.00000   180.00000     4.32808    90.00000   180.00000     4.32808
    28.20000    90.00000   180.00000     4.32803    90.00000   180.00000     4.32803
    28.30000    90.00000   180.00000     4.32799    90.00000   180.00000     4.32799
    28.40000    90.00000   180.00000     4.32795    90.00000   180.00000     4.32795
    28.50000    90.00000   180.00000     4.32790    90.00000   180.00000     4.32790
    28.60000    90.00000   180.00000     4.32786    90.00000   180.00000     4.32786
    28.70000    90.00000   180.00000     4.32782    90.00000   180.00000     4.32782
    28.80000    90.00000   180.00000     4.32778    90.00000   180.00000     4.32778
    28.90000    90.00000   180.00000     4.32773    90.00000   180.00000     4.32773
    29.00000    90.00000   180.00000     4.32769    90.00000   180.00000     4.32769
    29.10000    90.00000   180.00000     4.32765    90.00000   180.00000     4.32765
    29.20000    90.00000   180.00000     4.32760    90.00000   180.00000     4.32760
    29.30000    90.00000   180.00000     4.32756    90.00000   180.00000     4.32756
    29.40000    90.00000   180.00000     4.32752    90.00000   180.00000     4.32752
    29.50000    90.00000   180.00000     4.32748    90.00000   180.00000     4.32748
    29.60000    90.00000   180.00000     4.32743    90.00000   180.00000     4.32743
    29.70000    90.00000   180.00000     4.32739    90.00000   180.00000     4.32739
    29.80000    90.00000   180.00000     4.32735    90.00000   180.00000     4.32735
    29.90000    90.00000   180.00000     4.32730    90.00000   180.00000     4.32730
    30.00000    90.00000   180.00000     4.32726    90.00000   180.00000     4.32726
    30.10000    90.00000   180.00000     4.32722    90.00000   180.00000     4.32722
    30.20000    90.00000   180.00000     4.32718    90.00000   180.00000     4.32718
    30.30000    90.00000   180.00000     4.32713    90.00000   180.00000     4.32713
    30.40000    90.00000   180.00000     4.32709    90.00000   180.00000     4.32709
    30.50000    90.00000   180.00000     4.32705    90.00000   180.00000     4.32705
    30.60000    90.00000   180.00000     4.32700    90.00000   180.00000     4.32700
    30.70000    90.00000   180.00000     4.32696    90.00000   180.00000     4.32696
    30.80000    90.00000   180.00000     4.32692    90.00000   180.00000     4.32692
    30.90000    90.00000   180.00000     4.32687    90.00000   180.00000     4.32687
    31.00000    90.00000   180.00000     4.32683    90.00000   180.00000     4.32683
    31.10000    90.00000   180.00000     4.32679    90.00000   180.00000     4.32679
    31.20000    90.00000   180.00000     4.32675    90.00000   180.00000     4.32675
    31.30000    90.00000   180.00000     4.32670    90.00000   180.00000     4.32670
    31.40000    90.00000   180.00000     4.32666    90.00000   180.00000     4.32666
    31.50000    90.00000   180.00000     4.32662    90.00000   180.00000     4.32662
    31.60000    90.00000   180.00000     4.32657    90.00000   180.00000     4.32657
    31.70000    90.00000   180.00000     4.32653    90.00000   180.00000     4.32653
    31.80000    90.00000   180.00000     4.32649    90.00000   180.00000     4.32649
    31.90000    90.00000   180.00000     4.32644    90.00000   180.00000     4.32644
    32.00000    90.00000   180.00000     4.32640    90.00000   180.00000     4.32640
    32.10000    90.00000   180.00000     4.32636    90.00000   180.00000     4.32636
    32.20000    90.00000   180.00000     4.32632    90.00000   180.00000     4.32632
    32.30000    90.00000   180.00000     4.32627    90.00000   180.00000     4.32627
    32.40000    90.00000   180.00000     4.32623    90.00000   180.00000     4.32623
    32.50000    90.00000   180.00000     4.32619    90.00000   180.00000     4.32619
    32.60000    90.00000   180.00000     4.32614    90.00000   180.00000     4.32614
    32.70000    90.00000   180.00000     4.32610    90.00000   180.00000     4.32610
    32.80000    90.00000   180.00000     4.32606    90.00000   180.00000     4.32606
    32.90000    90.00000   180.00000     4.32601    90.00000   180.00000     4.32601
    33.00000    90.00000   180.00000     4.32597    90.00000   180.00000     4.32597
    33.10000    90.00000   180.00000     4.32593    90.00000   180.00000     4.32593
    33.20000    90.00000   180.00000     4.32588    90.00000   180.00000     4.32588
    33.30000    90.00000   180.00000     4.32584    90.00000   180.00000     4.32584
    33.40000    90.00000   180.00000     4.32580    90.00000   180.00000     4.32580
    33.50000    90.00000   180.00000     4.32576    90.00000   180.00000     4.32576
    33.60000    90.00000   180.00000     4.32571    90.00000   180.00000     4.32571
    33.70000    90.00000   180.00000     4.32567    90.00000   180.00000     4.32567
    33.80000    90.00000   180.00000     4.32563    90.00000   180.00000     4.32563
    33.90000    90.00000   180.00000     4.32558    90.00000   180.00000     4.32558
    34.00000    90.00000   180.00000     4.32554    90.00000   180.00000     4.32554
    34.10000    90.00000   180.00000     4.32550    90.00000   180.00000     4.32550
    34.20000    90.00000   180.00000     4.32545    90.00000   180.00000     4.32545
    34.30000    90.00000   180.00000     4.32541    90.00000   180.00000     4.32541
    34.40000    90.00000   180.00000     4.32537    90.00000   180.00000     4.32537
    34.50000    90.00000   180.00000     4.32532    90.00000   180.00000     4.32532
    34.60000    90.00000   180.00000     4.32528    90.00000   180.00000     4.32528
    34.70000    90.00000   180.00000     4.32524    90.00000   180.00000     4.32524
    34.80000    90.00000   180.00000     4.32519    90.00000   180.00000     4.32519
    34.90000    90.00000   180.00000     4.32515    90.00000   180.00000     4.32515
    35.00000    90.00000   180.00000     4.32511    90.00000   180.00000     4.32511
    35.10000    90.00000   180.00000     4.32506    90.00000   180.00000     4.32506
    35.20000    90.00000   180.00000     4.32502    90.00000   180.00000     4.32502
    35.30000    90.00000   180.00000     4.32498    90.00000   180.00000     4.32498
    35.40000    90.00000   180.00000     4.32493    90.00000   180.00000     4.32493
    35.50000    90.00000   180.00000     4.32489    90.00000   180.00000     4.32489
    35.60000    90.00000   180.00000     4.32485    90.00000   180.00000     4.32485
    35.70000    90.00000   180.00000     4.32480    90.00000   180.00000     4.32480
    35.80000    90.00000   180.00000     4.32476    90.00000   180.00000     4.32476
    35.90000    90.00000   180.00000     4.32472    90.00000   180.00000     4.32472
    36.00000    90.00000   180.00000     4.32467    90.00000   180.00000     4.32467
    36.10000    90.00000   180.00000     4.32463    90.00000   180.00000     4.32463
    36.20000    90.00000   180.00000     4.32459    90.00000   180.00000     4.32459
    36.30000    90.00000   180.00000     4.32454    90.00000   180.00000     4.32454
    36.40000    90.00000   180.00000     4.32450    90.00000   180.00000     4.32450
    36.50000    90.00000   180.00000     4.32446    90.00000   180.00000     4.32446
    36.60000    90.00000   180.00000     4.32441    90.00000   180.00000     4.32441
    36.70000    90.00000   180.00000     4.32437    90.00000   180.00000     4.32437
    36.80000    90.00000   180.00000     4.32433    90.00000   180.00000     4.32433
    36.90000    90.00000   180.00000     4.32428    90.00000   180.00000     4.32428
    37.00000    90.00000   180.00000     4.32424    90.00000   180.00000     4.32424
    37.10000    90.00000   180.00000     4.32420    90.00000   180.00000     4.32420
    37.20000    90.00000   180.00000     4.32415    90.00000   180.00000     4.32415
    37.30000    90.00000   180.00000     4.32411    90.00000   180.00000     4.32411
    37.40000    90.00000   180.00000     4.32407    90.00000   180.00000     4.32407
    37.50000    90.00000   180.00000     4.32402    90.00000   180.00000     4.32402
    37.60000    90.00000   180.00000     4.32398    90.00000   180.00000     4.32398
    37.70000    90.00000   180.00000     4.32394    90.00000   180.00000     4.32394
    37.80000    90.00000   180.00000     4.32389    90.00000   180.00000     4.32389
    37.90000    90.00000   180.00000     4.32385    90.00000   180.00000     4.32385
    38.00000    90.00000   180.00000     4.32381    90.00000   180.00000     4.32381
    38.10000    90.00000   180.00000     4.32376    90.00000   180.00000     4.32376
    38.20000    90.00000   180.00000     4.32372    90.00000   180.00000     4.32372
    38.30000    90.00000   180.00000     4.32368    90.00000   180.00000     4.32368
    38.40000    90.00000   180.00000     4.32363    90.00000   180.00000     4.32363
    38.50000    90.00000   180.00000     4.32359    90.00000   180.00000     4.32359
    38.60000    90.00000   180.00000     4.32355    90.00000   180.00000     4.32355
    38.70000    90.00000   180.00000     4.32350    90.00000   180.00000     4.32350
    38.80000    90.00000   180.00000     4.32346    90.00000   180.00000     4.32346
    38.90000    90.00000   180.00000     4.32341    90.00000   180.00000     4.32341
    39.00000    90.00000   180.00000     4.32337    90.00000   180.00000     4.32337
    39.10000    90.00000   180.00000     4.32333    90.00000   180.00000     4.32333
    39.20000    90.00000   180.00000     4.32328    90.00000   180.00000     4.32328
    39.30000    90.00000   180.00000     4.32324    90.00000   180.00000     4.32324
    39.40000    90.00000   180.00000     4.32320    90.00000   180.00000     4.32320
    39.50000    90.00000   180.00000     4.32315    90.00000   180.00000     4.32315
    39.60000    90.00000   180.00000     4.32311    90.00000   180.00000     4.32311
    39.70000    90.00000   180.00000     4.32307    90.00000   180.00000     4.32307
    39.80000    90.00000   180.00000     4.32302    90.00000   180.00000     4.32302
    39.90000    90.00000   180.00000     4.32298    90.00000   180.00000     4.32298
    40.00000    90.00000   180.00000     4.32294    90.00000   180.00000     4.32294
