 # applied field (T), theta (degree), phi (degree), abs
     0.00000     0.00000     0.00000    51.06863
     0.10000     0.22930     0.00000    51.06863
     0.20000     0.45860     0.00000    51.06863
     0.30000     0.74522     0.00000    51.06863
     0.40000     0.97452     0.00000    51.06863
     0.50000     1.20382     0.00000    51.06863
     0.60000     1.43312     0.00000    51.06863
     0.70000     1.66242     0.00000    51.06863
     0.80000     1.94904     0.00000    51.06863
     0.90000     2.17834     0.00000    51.06863
     1.00000     2.40764     0.00000    51.06863
     1.10000     2.63694     0.00000    51.06863
     1.20000     2.86624     0.00000    51.06863
     1.30000     3.09554     0.00000    51.06863
     1.40000     3.38217     0.00000    51.06863
     1.50000     3.61146     0.00000    51.06863
     1.60000     3.84076     0.00000    51.06863
     1.70000     4.07006     0.00000    51.06863
     1.80000     4.29936     0.00000    51.06863
     1.90000     4.58599     0.00000    51.06863
     2.00000     4.81529     0.00000    51.06863
     2.10000     5.04459     0.00000    51.06863
     2.20000     5.27389     0.00000    51.06863
     2.30000     5.50318     0.00000    51.06863
     2.40000     5.78981     0.00000    51.06863
     2.50000     6.01911     0.00000    51.06863
     2.60000     6.24841     0.00000    51.06863
     2.70000     6.47771     0.00000    51.06863
     2.80000     6.70701     0.00000    51.06863
     2.90000     6.99363     0.00000    51.06863
     3.00000     7.22293     0.00000    51.06863
     3.10000     7.45223     0.00000    51.06863
     3.20000     7.68153     0.00000    51.06863
     3.30000     7.96815     0.00000    51.06863
     3.40000     8.19745     0.00000    51.06863
     3.50000     8.42675     0.00000    51.06863
     3.60000     8.65605     0.00000    51.06863
     3.70000     8.88535     0.00000    51.06863
     3.80000     9.17197     0.00000    51.06863
     3.90000     9.40127     0.00000    51.06863
     4.00000     9.63057     0.00000    51.06863
     4.10000     9.85987     0.00000    51.06863
     4.20000    10.14650     0.00000    51.06863
     4.30000    10.37580     0.00000    51.06863
     4.40000    10.60510     0.00000    51.06863
     4.50000    10.83439     0.00000    51.06863
     4.60000    11.12102     0.00000    51.06863
     4.70000    11.35032     0.00000    51.06863
     4.80000    11.57962     0.00000    51.06863
     4.90000    11.86624     0.00000    51.06863
     5.00000    12.09554     0.00000    51.06863
     5.10000    12.32484     0.00000    51.06863
     5.20000    12.55414     0.00000    51.06863
     5.30000    12.84076     0.00000    51.06863
     5.40000    13.07006     0.00000    51.06863
     5.50000    13.29936     0.00000    51.06863
     5.60000    13.58599     0.00000    51.06863
     5.70000    13.81529     0.00000    51.06863
     5.80000    14.04459     0.00000    51.06863
     5.90000    14.27389     0.00000    51.06863
     6.00000    14.56051     0.00000    51.06863
     6.10000    14.78981     0.00000    51.06863
     6.20000    15.01911     0.00000    51.06863
     6.30000    15.30573     0.00000    51.06863
     6.40000    15.53503     0.00000    51.06863
     6.50000    15.82166     0.00000    51.06863
     6.60000    16.05096     0.00000    51.06863
     6.70000    16.28025     0.00000    51.06863
     6.80000    16.56688     0.00000    51.06863
     6.90000    16.79618     0.00000    51.06863
     7.00000    17.02548     0.00000    51.06863
     7.10000    17.31210     0.00000    51.06863
     7.20000    17.54140     0.00000    51.06863
     7.30000    17.82803     0.00000    51.06863
     7.40000    18.05732     0.00000    51.06863
     7.50000    18.28662     0.00000    51.06863
     7.60000    18.57325     0.00000    51.06863
     7.70000    18.80255     0.00000    51.06863
     7.80000    19.08917     0.00000    51.06863
     7.90000    19.31847     0.00000    51.06863
     8.00000    19.60510     0.00000    51.06863
     8.10000    19.83439     0.00000    51.06863
     8.20000    20.12102     0.00000    51.06863
     8.30000    20.35032     0.00000    51.06863
     8.40000    20.63694     0.00000    51.06863
     8.50000    20.86624     0.00000    51.06863
     8.60000    21.15287     0.00000    51.06863
     8.70000    21.38217     0.00000    51.06863
     8.80000    21.66879     0.00000    51.06863
     8.90000    21.89809     0.00000    51.06863
     9.00000    22.18471     0.00000    51.06863
     9.10000    22.47134     0.00000    51.06863
     9.20000    22.70064     0.00000    51.06863
     9.30000    22.98726     0.00000    51.06863
     9.40000    23.27389     0.00000    51.06863
     9.50000    23.50318     0.00000    51.06863
     9.60000    23.78981     0.00000    51.06863
     9.70000    24.07643     0.00000    51.06863
     9.80000    24.30573     0.00000    51.06863
     9.90000    24.59236     0.00000    51.06863
    10.00000    24.87898     0.00000    51.06863
    10.10000    25.16561     0.00000    51.06863
    10.20000    25.39490     0.00000    51.06863
    10.30000    25.68153     0.00000    51.06863
    10.40000    25.96815     0.00000    51.06863
    10.50000    26.25478     0.00000    51.06863
    10.60000    26.54140     0.00000    51.06863
    10.70000    26.82803     0.00000    51.06863
    10.80000    27.11465     0.00000    51.06863
    10.90000    27.40127     0.00000    51.06863
    11.00000    27.68790     0.00000    51.06863
    11.10000    27.97452     0.00000    51.06863
    11.20000    28.26115     0.00000    51.06863
    11.30000    28.54777     0.00000    51.06863
    11.40000    28.83439     0.00000    51.06863
    11.50000    29.12102     0.00000    51.06863
    11.60000    29.40764     0.00000    51.06863
    11.70000    29.75159     0.00000    51.06863
    11.80000    30.03822     0.00000    51.06863
    11.90000    30.32484     0.00000    51.06863
    12.00000    30.66879     0.00000    51.06863
    12.10000    30.95541     0.00000    51.06863
    12.20000    31.24204     0.00000    51.06863
    12.30000    31.58599     0.00000    51.06863
    12.40000    31.87261     0.00000    51.06863
    12.50000    32.21656     0.00000    51.06863
    12.60000    32.56051     0.00000    51.06863
    12.70000    32.84713     0.00000    51.06863
    12.80000    33.19108     0.00000    51.06863
    12.90000    33.53503     0.00000    51.06863
    13.00000    33.87898     0.00000    51.06863
    13.10000    34.22293     0.00000    51.06863
    13.20000    34.56688     0.00000    51.06863
    13.30000    34.91083     0.00000    51.06863
    13.40000    35.31210     0.00000    51.06863
    13.50000    35.65605     0.00000    51.06863
    13.60000    36.05732     0.00000    51.06863
    13.70000    36.40127     0.00000    51.06863
    13.80000    36.80255     0.00000    51.06863
    13.90000    37.20382     0.00000    51.06863
    14.00000    37.60510     0.00000    51.06863
    14.10000    38.00637     0.00000    51.06863
    14.20000    38.40764     0.00000    51.06863
    14.30000    38.86624     0.00000    51.06863
    14.40000    39.32484     0.00000    51.06863
    14.50000    90.00000     0.00000    51.06863
    14.60000    90.00000     0.00000    51.06863
    14.70000    90.00000     0.00000    51.06863
    14.80000    90.00000     0.00000    51.06863
    14.90000    90.00000     0.00000    51.06863
    15.00000    90.00000     0.00000    51.06863
    15.10000    90.00000     0.00000    51.06863
    15.20000    90.00000     0.00000    51.06863
    15.30000    90.00000     0.00000    51.06863
    15.40000    90.00000     0.00000    51.06863
    15.50000    90.00000     0.00000    51.06863
    15.60000    90.00000     0.00000    51.06863
    15.70000    90.00000     0.00000    51.06863
    15.80000    90.00000     0.00000    51.06863
    15.90000    90.00000     0.00000    51.06863
    16.00000    90.00000     0.00000    51.06863
    16.10000    90.00000     0.00000    51.06863
    16.20000    90.00000     0.00000    51.06863
    16.30000    90.00000     0.00000    51.06863
    16.40000    90.00000     0.00000    51.06863
    16.50000    90.00000     0.00000    51.06863
    16.60000    90.00000     0.00000    51.06863
    16.70000    90.00000     0.00000    51.06863
    16.80000    90.00000     0.00000    51.06863
    16.90000    90.00000     0.00000    51.06863
    17.00000    90.00000     0.00000    51.06863
    17.10000    90.00000     0.00000    51.06863
    17.20000    90.00000     0.00000    51.06863
    17.30000    90.00000     0.00000    51.06863
    17.40000    90.00000     0.00000    51.06863
    17.50000    90.00000     0.00000    51.06863
    17.60000    90.00000     0.00000    51.06863
    17.70000    90.00000     0.00000    51.06863
    17.80000    90.00000     0.00000    51.06863
    17.90000    90.00000     0.00000    51.06863
    18.00000    90.00000     0.00000    51.06863
    18.10000    90.00000     0.00000    51.06863
    18.20000    90.00000     0.00000    51.06863
    18.30000    90.00000     0.00000    51.06863
    18.40000    90.00000     0.00000    51.06863
    18.50000    90.00000     0.00000    51.06863
    18.60000    90.00000     0.00000    51.06863
    18.70000    90.00000     0.00000    51.06863
    18.80000    90.00000     0.00000    51.06863
    18.90000    90.00000     0.00000    51.06863
    19.00000    90.00000     0.00000    51.06863
    19.10000    90.00000     0.00000    51.06863
    19.20000    90.00000     0.00000    51.06863
    19.30000    90.00000     0.00000    51.06863
    19.40000    90.00000     0.00000    51.06863
    19.50000    90.00000     0.00000    51.06863
    19.60000    90.00000     0.00000    51.06863
    19.70000    90.00000     0.00000    51.06863
    19.80000    90.00000     0.00000    51.06863
    19.90000    90.00000     0.00000    51.06863
    20.00000    90.00000     0.00000    51.06863
    20.10000    90.00000     0.00000    51.06863
    20.20000    90.00000     0.00000    51.06863
    20.30000    90.00000     0.00000    51.06863
    20.40000    90.00000     0.00000    51.06863
    20.50000    90.00000     0.00000    51.06863
    20.60000    90.00000     0.00000    51.06863
    20.70000    90.00000     0.00000    51.06863
    20.80000    90.00000     0.00000    51.06863
    20.90000    90.00000     0.00000    51.06863
    21.00000    90.00000     0.00000    51.06863
    21.10000    90.00000     0.00000    51.06863
    21.20000    90.00000     0.00000    51.06863
    21.30000    90.00000     0.00000    51.06863
    21.40000    90.00000     0.00000    51.06863
    21.50000    90.00000     0.00000    51.06863
    21.60000    90.00000     0.00000    51.06863
    21.70000    90.00000     0.00000    51.06863
    21.80000    90.00000     0.00000    51.06863
    21.90000    90.00000     0.00000    51.06863
    22.00000    90.00000     0.00000    51.06863
    22.10000    90.00000     0.00000    51.06863
    22.20000    90.00000     0.00000    51.06863
    22.30000    90.00000     0.00000    51.06863
    22.40000    90.00000     0.00000    51.06863
    22.50000    90.00000     0.00000    51.06863
    22.60000    90.00000     0.00000    51.06863
    22.70000    90.00000     0.00000    51.06863
    22.80000    90.00000     0.00000    51.06863
    22.90000    90.00000     0.00000    51.06863
    23.00000    90.00000     0.00000    51.06863
    23.10000    90.00000     0.00000    51.06863
    23.20000    90.00000     0.00000    51.06863
    23.30000    90.00000     0.00000    51.06863
    23.40000    90.00000     0.00000    51.06863
    23.50000    90.00000     0.00000    51.06863
    23.60000    90.00000     0.00000    51.06863
    23.70000    90.00000     0.00000    51.06863
    23.80000    90.00000     0.00000    51.06863
    23.90000    90.00000     0.00000    51.06863
    24.00000    90.00000     0.00000    51.06863
    24.10000    90.00000     0.00000    51.06863
    24.20000    90.00000     0.00000    51.06863
    24.30000    90.00000     0.00000    51.06863
    24.40000    90.00000     0.00000    51.06863
    24.50000    90.00000     0.00000    51.06863
    24.60000    90.00000     0.00000    51.06863
    24.70000    90.00000     0.00000    51.06863
    24.80000    90.00000     0.00000    51.06863
    24.90000    90.00000     0.00000    51.06863
    25.00000    90.00000     0.00000    51.06863
    25.10000    90.00000     0.00000    51.06863
    25.20000    90.00000     0.00000    51.06863
    25.30000    90.00000     0.00000    51.06863
    25.40000    90.00000     0.00000    51.06863
    25.50000    90.00000     0.00000    51.06863
    25.60000    90.00000     0.00000    51.06863
    25.70000    90.00000     0.00000    51.06863
    25.80000    90.00000     0.00000    51.06863
    25.90000    90.00000     0.00000    51.06863
    26.00000    90.00000     0.00000    51.06863
    26.10000    90.00000     0.00000    51.06863
    26.20000    90.00000     0.00000    51.06863
    26.30000    90.00000     0.00000    51.06863
    26.40000    90.00000     0.00000    51.06863
    26.50000    90.00000     0.00000    51.06863
    26.60000    90.00000     0.00000    51.06863
    26.70000    90.00000     0.00000    51.06863
    26.80000    90.00000     0.00000    51.06863
    26.90000    90.00000     0.00000    51.06863
    27.00000    90.00000     0.00000    51.06863
    27.10000    90.00000     0.00000    51.06863
    27.20000    90.00000     0.00000    51.06863
    27.30000    90.00000     0.00000    51.06863
    27.40000    90.00000     0.00000    51.06863
    27.50000    90.00000     0.00000    51.06863
    27.60000    90.00000     0.00000    51.06863
    27.70000    90.00000     0.00000    51.06863
    27.80000    90.00000     0.00000    51.06863
    27.90000    90.00000     0.00000    51.06863
    28.00000    90.00000     0.00000    51.06863
    28.10000    90.00000     0.00000    51.06863
    28.20000    90.00000     0.00000    51.06863
    28.30000    90.00000     0.00000    51.06863
    28.40000    90.00000     0.00000    51.06863
    28.50000    90.00000     0.00000    51.06863
    28.60000    90.00000     0.00000    51.06863
    28.70000    90.00000     0.00000    51.06863
    28.80000    90.00000     0.00000    51.06863
    28.90000    90.00000     0.00000    51.06863
    29.00000    90.00000     0.00000    51.06863
    29.10000    90.00000     0.00000    51.06863
    29.20000    90.00000     0.00000    51.06863
    29.30000    90.00000     0.00000    51.06863
    29.40000    90.00000     0.00000    51.06863
    29.50000    90.00000     0.00000    51.06863
    29.60000    90.00000     0.00000    51.06863
    29.70000    90.00000     0.00000    51.06863
    29.80000    90.00000     0.00000    51.06863
    29.90000    90.00000     0.00000    51.06863
    30.00000    90.00000     0.00000    51.06863
    30.10000    90.00000     0.00000    51.06863
    30.20000    90.00000     0.00000    51.06863
    30.30000    90.00000     0.00000    51.06863
    30.40000    90.00000     0.00000    51.06863
    30.50000    90.00000     0.00000    51.06863
    30.60000    90.00000     0.00000    51.06863
    30.70000    90.00000     0.00000    51.06863
    30.80000    90.00000     0.00000    51.06863
    30.90000    90.00000     0.00000    51.06863
    31.00000    90.00000     0.00000    51.06863
    31.10000    90.00000     0.00000    51.06863
    31.20000    90.00000     0.00000    51.06863
    31.30000    90.00000     0.00000    51.06863
    31.40000    90.00000     0.00000    51.06863
    31.50000    90.00000     0.00000    51.06863
    31.60000    90.00000     0.00000    51.06863
    31.70000    90.00000     0.00000    51.06863
    31.80000    90.00000     0.00000    51.06863
    31.90000    90.00000     0.00000    51.06863
    32.00000    90.00000     0.00000    51.06863
    32.10000    90.00000     0.00000    51.06863
    32.20000    90.00000     0.00000    51.06863
    32.30000    90.00000     0.00000    51.06863
    32.40000    90.00000     0.00000    51.06863
    32.50000    90.00000     0.00000    51.06863
    32.60000    90.00000     0.00000    51.06863
    32.70000    90.00000     0.00000    51.06863
    32.80000    90.00000     0.00000    51.06863
    32.90000    90.00000     0.00000    51.06863
    33.00000    90.00000     0.00000    51.06863
    33.10000    90.00000     0.00000    51.06863
    33.20000    90.00000     0.00000    51.06863
    33.30000    90.00000     0.00000    51.06863
    33.40000    90.00000     0.00000    51.06863
    33.50000    90.00000     0.00000    51.06863
    33.60000    90.00000     0.00000    51.06863
    33.70000    90.00000     0.00000    51.06863
    33.80000    90.00000     0.00000    51.06863
    33.90000    90.00000     0.00000    51.06863
    34.00000    90.00000     0.00000    51.06863
    34.10000    90.00000     0.00000    51.06863
    34.20000    90.00000     0.00000    51.06863
    34.30000    90.00000     0.00000    51.06863
    34.40000    90.00000     0.00000    51.06863
    34.50000    90.00000     0.00000    51.06863
    34.60000    90.00000     0.00000    51.06863
    34.70000    90.00000     0.00000    51.06863
    34.80000    90.00000     0.00000    51.06863
    34.90000    90.00000     0.00000    51.06863
    35.00000    90.00000     0.00000    51.06863
    35.10000    90.00000     0.00000    51.06863
    35.20000    90.00000     0.00000    51.06863
    35.30000    90.00000     0.00000    51.06863
    35.40000    90.00000     0.00000    51.06863
    35.50000    90.00000     0.00000    51.06863
    35.60000    90.00000     0.00000    51.06863
    35.70000    90.00000     0.00000    51.06863
    35.80000    90.00000     0.00000    51.06863
    35.90000    90.00000     0.00000    51.06863
    36.00000    90.00000     0.00000    51.06863
    36.10000    90.00000     0.00000    51.06863
    36.20000    90.00000     0.00000    51.06863
    36.30000    90.00000     0.00000    51.06863
    36.40000    90.00000     0.00000    51.06863
    36.50000    90.00000     0.00000    51.06863
    36.60000    90.00000     0.00000    51.06863
    36.70000    90.00000     0.00000    51.06863
    36.80000    90.00000     0.00000    51.06863
    36.90000    90.00000     0.00000    51.06863
    37.00000    90.00000     0.00000    51.06863
    37.10000    90.00000     0.00000    51.06863
    37.20000    90.00000     0.00000    51.06863
    37.30000    90.00000     0.00000    51.06863
    37.40000    90.00000     0.00000    51.06863
    37.50000    90.00000     0.00000    51.06863
    37.60000    90.00000     0.00000    51.06863
    37.70000    90.00000     0.00000    51.06863
    37.80000    90.00000     0.00000    51.06863
    37.90000    90.00000     0.00000    51.06863
    38.00000    90.00000     0.00000    51.06863
    38.10000    90.00000     0.00000    51.06863
    38.20000    90.00000     0.00000    51.06863
    38.30000    90.00000     0.00000    51.06863
    38.40000    90.00000     0.00000    51.06863
    38.50000    90.00000     0.00000    51.06863
    38.60000    90.00000     0.00000    51.06863
    38.70000    90.00000     0.00000    51.06863
    38.80000    90.00000     0.00000    51.06863
    38.90000    90.00000     0.00000    51.06863
    39.00000    90.00000     0.00000    51.06863
    39.10000    90.00000     0.00000    51.06863
    39.20000    90.00000     0.00000    51.06863
    39.30000    90.00000     0.00000    51.06863
    39.40000    90.00000     0.00000    51.06863
    39.50000    90.00000     0.00000    51.06863
    39.60000    90.00000     0.00000    51.06863
    39.70000    90.00000     0.00000    51.06863
    39.80000    90.00000     0.00000    51.06863
    39.90000    90.00000     0.00000    51.06863
    40.00000    90.00000     0.00000    51.06863
