 # applied field (T), theta (degree), phi (degree), abs for RE 1-2
     0.00000   180.00000   180.00000     3.40772   180.00000   180.00000     3.40772
     0.10000   178.82258   180.00000     3.40765   178.82258   180.00000     3.40765
     0.20000   177.69853   180.00000     3.40745   177.69853   180.00000     3.40745
     0.30000   176.52054   180.00000     3.40710   176.52054   180.00000     3.40710
     0.40000   175.34197   180.00000     3.40661   175.34197   180.00000     3.40661
     0.50000   174.16262   180.00000     3.40598   174.16262   180.00000     3.40598
     0.60000   172.98231   180.00000     3.40522   172.98231   180.00000     3.40522
     0.70000   171.80085   180.00000     3.40432   171.80085   180.00000     3.40432
     0.80000   170.61805   180.00000     3.40329   170.61805   180.00000     3.40329
     0.90000   169.37983   180.00000     3.40207   169.37983   180.00000     3.40207
     1.00000   168.19374   180.00000     3.40078   168.19374   180.00000     3.40078
     1.10000   166.95170   180.00000     3.39929   166.95170   180.00000     3.39929
     1.20000   165.70743   180.00000     3.39768   165.70743   180.00000     3.39768
     1.30000   164.40645   180.00000     3.39586   164.40645   180.00000     3.39586
     1.40000   163.10265   180.00000     3.39392   163.10265   180.00000     3.39392
     1.50000   161.79584   180.00000     3.39185   161.79584   180.00000     3.39185
     1.60000   160.48585   180.00000     3.38966   160.48585   180.00000     3.38966
     1.70000   159.11768   180.00000     3.38726   159.11768   180.00000     3.38726
     1.80000   157.74572   180.00000     3.38476   157.74572   180.00000     3.38476
     1.90000   156.31465   180.00000     3.38204   156.31465   180.00000     3.38204
     2.00000   154.82382   180.00000     3.37912   154.82382   180.00000     3.37912
     2.10000   153.32805   180.00000     3.37609   153.32805   180.00000     3.37609
     2.20000   151.77150   180.00000     3.37287   151.77150   180.00000     3.37287
     2.30000   150.15345   180.00000     3.36944   150.15345   180.00000     3.36944
     2.40000   148.47316   180.00000     3.36583   148.47316   180.00000     3.36583
     2.50000   146.72991   180.00000     3.36203   146.72991   180.00000     3.36203
     2.60000   144.92293   180.00000     3.35806   144.92293   180.00000     3.35806
     2.70000   143.05149   180.00000     3.35395   143.05149   180.00000     3.35395
     2.80000   141.05778   180.00000     3.34957   141.05778   180.00000     3.34957
     2.90000   138.94033   180.00000     3.34496   138.94033   180.00000     3.34496
     3.00000   136.64001   180.00000     3.34003   136.64001   180.00000     3.34003
     3.10000   134.21251   180.00000     3.33494   134.21251   180.00000     3.33494
     3.20000   131.59825   180.00000     3.32964   131.59825   180.00000     3.32964
     3.30000   128.67803   180.00000     3.32397   128.67803   180.00000     3.32397
     3.40000   125.44812   180.00000     3.31807   125.44812   180.00000     3.31807
     3.50000   121.72752   180.00000     3.31180   121.72752   180.00000     3.31180
     3.60000   117.33190   180.00000     3.30520   117.33190   180.00000     3.30520
     3.70000   111.77482   180.00000     3.29820   111.77482   180.00000     3.29820
     3.80000   103.59835   180.00000     3.29073   103.59835   180.00000     3.29073
     3.90000    90.00000   180.00000     3.28596    90.00000   180.00000     3.28596
     4.00000    90.00000   180.00000     3.28594    90.00000   180.00000     3.28594
     4.10000    90.00000   180.00000     3.28593    90.00000   180.00000     3.28593
     4.20000    90.00000   180.00000     3.28592    90.00000   180.00000     3.28592
     4.30000    90.00000   180.00000     3.28590    90.00000   180.00000     3.28590
     4.40000    90.00000   180.00000     3.28589    90.00000   180.00000     3.28589
     4.50000    90.00000   180.00000     3.28588    90.00000   180.00000     3.28588
     4.60000    90.00000   180.00000     3.28586    90.00000   180.00000     3.28586
     4.70000    90.00000   180.00000     3.28585    90.00000   180.00000     3.28585
     4.80000    90.00000   180.00000     3.28584    90.00000   180.00000     3.28584
     4.90000    90.00000   180.00000     3.28582    90.00000   180.00000     3.28582
     5.00000    90.00000   180.00000     3.28581    90.00000   180.00000     3.28581
     5.10000    90.00000   180.00000     3.28580    90.00000   180.00000     3.28580
     5.20000    90.00000   180.00000     3.28578    90.00000   180.00000     3.28578
     5.30000    90.00000   180.00000     3.28577    90.00000   180.00000     3.28577
     5.40000    90.00000   180.00000     3.28576    90.00000   180.00000     3.28576
     5.50000    90.00000   180.00000     3.28574    90.00000   180.00000     3.28574
     5.60000    90.00000   180.00000     3.28573    90.00000   180.00000     3.28573
     5.70000    90.00000   180.00000     3.28572    90.00000   180.00000     3.28572
     5.80000    90.00000   180.00000     3.28570    90.00000   180.00000     3.28570
     5.90000    90.00000   180.00000     3.28569    90.00000   180.00000     3.28569
     6.00000    90.00000   180.00000     3.28568    90.00000   180.00000     3.28568
     6.10000    90.00000   180.00000     3.28566    90.00000   180.00000     3.28566
     6.20000    90.00000   180.00000     3.28565    90.00000   180.00000     3.28565
     6.30000    90.00000   180.00000     3.28563    90.00000   180.00000     3.28563
     6.40000    90.00000   180.00000     3.28562    90.00000   180.00000     3.28562
     6.50000    90.00000   180.00000     3.28561    90.00000   180.00000     3.28561
     6.60000    90.00000   180.00000     3.28559    90.00000   180.00000     3.28559
     6.70000    90.00000   180.00000     3.28558    90.00000   180.00000     3.28558
     6.80000    90.00000   180.00000     3.28557    90.00000   180.00000     3.28557
     6.90000    90.00000   180.00000     3.28555    90.00000   180.00000     3.28555
     7.00000    90.00000   180.00000     3.28554    90.00000   180.00000     3.28554
     7.10000    90.00000   180.00000     3.28552    90.00000   180.00000     3.28552
     7.20000    90.00000   180.00000     3.28551    90.00000   180.00000     3.28551
     7.30000    90.00000   180.00000     3.28550    90.00000   180.00000     3.28550
     7.40000    90.00000   180.00000     3.28548    90.00000   180.00000     3.28548
     7.50000    90.00000   180.00000     3.28547    90.00000   180.00000     3.28547
     7.60000    90.00000   180.00000     3.28546    90.00000   180.00000     3.28546
     7.70000    90.00000   180.00000     3.28544    90.00000   180.00000     3.28544
     7.80000    90.00000   180.00000     3.28543    90.00000   180.00000     3.28543
     7.90000    90.00000   180.00000     3.28541    90.00000   180.00000     3.28541
     8.00000    90.00000   180.00000     3.28540    90.00000   180.00000     3.28540
     8.10000    90.00000   180.00000     3.28539    90.00000   180.00000     3.28539
     8.20000    90.00000   180.00000     3.28537    90.00000   180.00000     3.28537
     8.30000    90.00000   180.00000     3.28536    90.00000   180.00000     3.28536
     8.40000    90.00000   180.00000     3.28534    90.00000   180.00000     3.28534
     8.50000    90.00000   180.00000     3.28533    90.00000   180.00000     3.28533
     8.60000    90.00000   180.00000     3.28531    90.00000   180.00000     3.28531
     8.70000    90.00000   180.00000     3.28530    90.00000   180.00000     3.28530
     8.80000    90.00000   180.00000     3.28529    90.00000   180.00000     3.28529
     8.90000    90.00000   180.00000     3.28527    90.00000   180.00000     3.28527
     9.00000    90.00000   180.00000     3.28526    90.00000   180.00000     3.28526
     9.10000    90.00000   180.00000     3.28524    90.00000   180.00000     3.28524
     9.20000    90.00000   180.00000     3.28523    90.00000   180.00000     3.28523
     9.30000    90.00000   180.00000     3.28521    90.00000   180.00000     3.28521
     9.40000    90.00000   180.00000     3.28520    90.00000   180.00000     3.28520
     9.50000    90.00000   180.00000     3.28519    90.00000   180.00000     3.28519
     9.60000    90.00000   180.00000     3.28517    90.00000   180.00000     3.28517
     9.70000    90.00000   180.00000     3.28516    90.00000   180.00000     3.28516
     9.80000    90.00000   180.00000     3.28514    90.00000   180.00000     3.28514
     9.90000    90.00000   180.00000     3.28513    90.00000   180.00000     3.28513
    10.00000    90.00000   180.00000     3.28511    90.00000   180.00000     3.28511
    10.10000    90.00000   180.00000     3.28510    90.00000   180.00000     3.28510
    10.20000    90.00000   180.00000     3.28509    90.00000   180.00000     3.28509
    10.30000    90.00000   180.00000     3.28507    90.00000   180.00000     3.28507
    10.40000    90.00000   180.00000     3.28506    90.00000   180.00000     3.28506
    10.50000    90.00000   180.00000     3.28504    90.00000   180.00000     3.28504
    10.60000    90.00000   180.00000     3.28503    90.00000   180.00000     3.28503
    10.70000    90.00000   180.00000     3.28501    90.00000   180.00000     3.28501
    10.80000    90.00000   180.00000     3.28500    90.00000   180.00000     3.28500
    10.90000    90.00000   180.00000     3.28498    90.00000   180.00000     3.28498
    11.00000    90.00000   180.00000     3.28497    90.00000   180.00000     3.28497
    11.10000    90.00000   180.00000     3.28495    90.00000   180.00000     3.28495
    11.20000    90.00000   180.00000     3.28494    90.00000   180.00000     3.28494
    11.30000    90.00000   180.00000     3.28492    90.00000   180.00000     3.28492
    11.40000    90.00000   180.00000     3.28491    90.00000   180.00000     3.28491
    11.50000    90.00000   180.00000     3.28489    90.00000   180.00000     3.28489
    11.60000    90.00000   180.00000     3.28488    90.00000   180.00000     3.28488
    11.70000    90.00000   180.00000     3.28487    90.00000   180.00000     3.28487
    11.80000    90.00000   180.00000     3.28485    90.00000   180.00000     3.28485
    11.90000    90.00000   180.00000     3.28484    90.00000   180.00000     3.28484
    12.00000    90.00000   180.00000     3.28482    90.00000   180.00000     3.28482
    12.10000    90.00000   180.00000     3.28481    90.00000   180.00000     3.28481
    12.20000    90.00000   180.00000     3.28479    90.00000   180.00000     3.28479
    12.30000    90.00000   180.00000     3.28478    90.00000   180.00000     3.28478
    12.40000    90.00000   180.00000     3.28476    90.00000   180.00000     3.28476
    12.50000    90.00000   180.00000     3.28475    90.00000   180.00000     3.28475
    12.60000    90.00000   180.00000     3.28473    90.00000   180.00000     3.28473
    12.70000    90.00000   180.00000     3.28472    90.00000   180.00000     3.28472
    12.80000    90.00000   180.00000     3.28470    90.00000   180.00000     3.28470
    12.90000    90.00000   180.00000     3.28469    90.00000   180.00000     3.28469
    13.00000    90.00000   180.00000     3.28467    90.00000   180.00000     3.28467
    13.10000    90.00000   180.00000     3.28466    90.00000   180.00000     3.28466
    13.20000    90.00000   180.00000     3.28464    90.00000   180.00000     3.28464
    13.30000    90.00000   180.00000     3.28463    90.00000   180.00000     3.28463
    13.40000    90.00000   180.00000     3.28461    90.00000   180.00000     3.28461
    13.50000    90.00000   180.00000     3.28459    90.00000   180.00000     3.28459
    13.60000    90.00000   180.00000     3.28458    90.00000   180.00000     3.28458
    13.70000    90.00000   180.00000     3.28456    90.00000   180.00000     3.28456
    13.80000    90.00000   180.00000     3.28455    90.00000   180.00000     3.28455
    13.90000    90.00000   180.00000     3.28453    90.00000   180.00000     3.28453
    14.00000    90.00000   180.00000     3.28452    90.00000   180.00000     3.28452
    14.10000    90.00000   180.00000     3.28450    90.00000   180.00000     3.28450
    14.20000    90.00000   180.00000     3.28449    90.00000   180.00000     3.28449
    14.30000    90.00000   180.00000     3.28447    90.00000   180.00000     3.28447
    14.40000    90.00000   180.00000     3.28446    90.00000   180.00000     3.28446
    14.50000    90.00000   180.00000     3.28444    90.00000   180.00000     3.28444
    14.60000    90.00000   180.00000     3.28443    90.00000   180.00000     3.28443
    14.70000    90.00000   180.00000     3.28441    90.00000   180.00000     3.28441
    14.80000    90.00000   180.00000     3.28439    90.00000   180.00000     3.28439
    14.90000    90.00000   180.00000     3.28438    90.00000   180.00000     3.28438
    15.00000    90.00000   180.00000     3.28436    90.00000   180.00000     3.28436
    15.10000    90.00000   180.00000     3.28435    90.00000   180.00000     3.28435
    15.20000    90.00000   180.00000     3.28433    90.00000   180.00000     3.28433
    15.30000    90.00000   180.00000     3.28432    90.00000   180.00000     3.28432
    15.40000    90.00000   180.00000     3.28430    90.00000   180.00000     3.28430
    15.50000    90.00000   180.00000     3.28429    90.00000   180.00000     3.28429
    15.60000    90.00000   180.00000     3.28427    90.00000   180.00000     3.28427
    15.70000    90.00000   180.00000     3.28425    90.00000   180.00000     3.28425
    15.80000    90.00000   180.00000     3.28424    90.00000   180.00000     3.28424
    15.90000    90.00000   180.00000     3.28422    90.00000   180.00000     3.28422
    16.00000    90.00000   180.00000     3.28421    90.00000   180.00000     3.28421
    16.10000    90.00000   180.00000     3.28419    90.00000   180.00000     3.28419
    16.20000    90.00000   180.00000     3.28418    90.00000   180.00000     3.28418
    16.30000    90.00000   180.00000     3.28416    90.00000   180.00000     3.28416
    16.40000    90.00000   180.00000     3.28414    90.00000   180.00000     3.28414
    16.50000    90.00000   180.00000     3.28413    90.00000   180.00000     3.28413
    16.60000    90.00000   180.00000     3.28411    90.00000   180.00000     3.28411
    16.70000    90.00000   180.00000     3.28410    90.00000   180.00000     3.28410
    16.80000    90.00000   180.00000     3.28408    90.00000   180.00000     3.28408
    16.90000    90.00000   180.00000     3.28406    90.00000   180.00000     3.28406
    17.00000    90.00000   180.00000     3.28405    90.00000   180.00000     3.28405
    17.10000    90.00000   180.00000     3.28403    90.00000   180.00000     3.28403
    17.20000    90.00000   180.00000     3.28402    90.00000   180.00000     3.28402
    17.30000    90.00000   180.00000     3.28400    90.00000   180.00000     3.28400
    17.40000    90.00000   180.00000     3.28398    90.00000   180.00000     3.28398
    17.50000    90.00000   180.00000     3.28397    90.00000   180.00000     3.28397
    17.60000    90.00000   180.00000     3.28395    90.00000   180.00000     3.28395
    17.70000    90.00000   180.00000     3.28394    90.00000   180.00000     3.28394
    17.80000    90.00000   180.00000     3.28392    90.00000   180.00000     3.28392
    17.90000    90.00000   180.00000     3.28390    90.00000   180.00000     3.28390
    18.00000    90.00000   180.00000     3.28389    90.00000   180.00000     3.28389
    18.10000    90.00000   180.00000     3.28387    90.00000   180.00000     3.28387
    18.20000    90.00000   180.00000     3.28385    90.00000   180.00000     3.28385
    18.30000    90.00000   180.00000     3.28384    90.00000   180.00000     3.28384
    18.40000    90.00000   180.00000     3.28382    90.00000   180.00000     3.28382
    18.50000    90.00000   180.00000     3.28381    90.00000   180.00000     3.28381
    18.60000    90.00000   180.00000     3.28379    90.00000   180.00000     3.28379
    18.70000    90.00000   180.00000     3.28377    90.00000   180.00000     3.28377
    18.80000    90.00000   180.00000     3.28376    90.00000   180.00000     3.28376
    18.90000    90.00000   180.00000     3.28374    90.00000   180.00000     3.28374
    19.00000    90.00000   180.00000     3.28372    90.00000   180.00000     3.28372
    19.10000    90.00000   180.00000     3.28371    90.00000   180.00000     3.28371
    19.20000    90.00000   180.00000     3.28369    90.00000   180.00000     3.28369
    19.30000    90.00000   180.00000     3.28367    90.00000   180.00000     3.28367
    19.40000    90.00000   180.00000     3.28366    90.00000   180.00000     3.28366
    19.50000    90.00000   180.00000     3.28364    90.00000   180.00000     3.28364
    19.60000    90.00000   180.00000     3.28363    90.00000   180.00000     3.28363
    19.70000    90.00000   180.00000     3.28361    90.00000   180.00000     3.28361
    19.80000    90.00000   180.00000     3.28359    90.00000   180.00000     3.28359
    19.90000    90.00000   180.00000     3.28358    90.00000   180.00000     3.28358
    20.00000    90.00000   180.00000     3.28356    90.00000   180.00000     3.28356
    20.10000    90.00000   180.00000     3.28354    90.00000   180.00000     3.28354
    20.20000    90.00000   180.00000     3.28353    90.00000   180.00000     3.28353
    20.30000    90.00000   180.00000     3.28351    90.00000   180.00000     3.28351
    20.40000    90.00000   180.00000     3.28349    90.00000   180.00000     3.28349
    20.50000    90.00000   180.00000     3.28348    90.00000   180.00000     3.28348
    20.60000    90.00000   180.00000     3.28346    90.00000   180.00000     3.28346
    20.70000    90.00000   180.00000     3.28344    90.00000   180.00000     3.28344
    20.80000    90.00000   180.00000     3.28342    90.00000   180.00000     3.28342
    20.90000    90.00000   180.00000     3.28341    90.00000   180.00000     3.28341
    21.00000    90.00000   180.00000     3.28339    90.00000   180.00000     3.28339
    21.10000    90.00000   180.00000     3.28337    90.00000   180.00000     3.28337
    21.20000    90.00000   180.00000     3.28336    90.00000   180.00000     3.28336
    21.30000    90.00000   180.00000     3.28334    90.00000   180.00000     3.28334
    21.40000    90.00000   180.00000     3.28332    90.00000   180.00000     3.28332
    21.50000    90.00000   180.00000     3.28331    90.00000   180.00000     3.28331
    21.60000    90.00000   180.00000     3.28329    90.00000   180.00000     3.28329
    21.70000    90.00000   180.00000     3.28327    90.00000   180.00000     3.28327
    21.80000    90.00000   180.00000     3.28326    90.00000   180.00000     3.28326
    21.90000    90.00000   180.00000     3.28324    90.00000   180.00000     3.28324
    22.00000    90.00000   180.00000     3.28322    90.00000   180.00000     3.28322
    22.10000    90.00000   180.00000     3.28320    90.00000   180.00000     3.28320
    22.20000    90.00000   180.00000     3.28319    90.00000   180.00000     3.28319
    22.30000    90.00000   180.00000     3.28317    90.00000   180.00000     3.28317
    22.40000    90.00000   180.00000     3.28315    90.00000   180.00000     3.28315
    22.50000    90.00000   180.00000     3.28314    90.00000   180.00000     3.28314
    22.60000    90.00000   180.00000     3.28312    90.00000   180.00000     3.28312
    22.70000    90.00000   180.00000     3.28310    90.00000   180.00000     3.28310
    22.80000    90.00000   180.00000     3.28308    90.00000   180.00000     3.28308
    22.90000    90.00000   180.00000     3.28307    90.00000   180.00000     3.28307
    23.00000    90.00000   180.00000     3.28305    90.00000   180.00000     3.28305
    23.10000    90.00000   180.00000     3.28303    90.00000   180.00000     3.28303
    23.20000    90.00000   180.00000     3.28301    90.00000   180.00000     3.28301
    23.30000    90.00000   180.00000     3.28300    90.00000   180.00000     3.28300
    23.40000    90.00000   180.00000     3.28298    90.00000   180.00000     3.28298
    23.50000    90.00000   180.00000     3.28296    90.00000   180.00000     3.28296
    23.60000    90.00000   180.00000     3.28295    90.00000   180.00000     3.28295
    23.70000    90.00000   180.00000     3.28293    90.00000   180.00000     3.28293
    23.80000    90.00000   180.00000     3.28291    90.00000   180.00000     3.28291
    23.90000    90.00000   180.00000     3.28289    90.00000   180.00000     3.28289
    24.00000    90.00000   180.00000     3.28288    90.00000   180.00000     3.28288
    24.10000    90.00000   180.00000     3.28286    90.00000   180.00000     3.28286
    24.20000    90.00000   180.00000     3.28284    90.00000   180.00000     3.28284
    24.30000    90.00000   180.00000     3.28282    90.00000   180.00000     3.28282
    24.40000    90.00000   180.00000     3.28280    90.00000   180.00000     3.28280
    24.50000    90.00000   180.00000     3.28279    90.00000   180.00000     3.28279
    24.60000    90.00000   180.00000     3.28277    90.00000   180.00000     3.28277
    24.70000    90.00000   180.00000     3.28275    90.00000   180.00000     3.28275
    24.80000    90.00000   180.00000     3.28273    90.00000   180.00000     3.28273
    24.90000    90.00000   180.00000     3.28272    90.00000   180.00000     3.28272
    25.00000    90.00000   180.00000     3.28270    90.00000   180.00000     3.28270
    25.10000    90.00000   180.00000     3.28268    90.00000   180.00000     3.28268
    25.20000    90.00000   180.00000     3.28266    90.00000   180.00000     3.28266
    25.30000    90.00000   180.00000     3.28265    90.00000   180.00000     3.28265
    25.40000    90.00000   180.00000     3.28263    90.00000   180.00000     3.28263
    25.50000    90.00000   180.00000     3.28261    90.00000   180.00000     3.28261
    25.60000    90.00000   180.00000     3.28259    90.00000   180.00000     3.28259
    25.70000    90.00000   180.00000     3.28257    90.00000   180.00000     3.28257
    25.80000    90.00000   180.00000     3.28256    90.00000   180.00000     3.28256
    25.90000    90.00000   180.00000     3.28254    90.00000   180.00000     3.28254
    26.00000    90.00000   180.00000     3.28252    90.00000   180.00000     3.28252
    26.10000    90.00000   180.00000     3.28250    90.00000   180.00000     3.28250
    26.20000    90.00000   180.00000     3.28248    90.00000   180.00000     3.28248
    26.30000    90.00000   180.00000     3.28247    90.00000   180.00000     3.28247
    26.40000    90.00000   180.00000     3.28245    90.00000   180.00000     3.28245
    26.50000    90.00000   180.00000     3.28243    90.00000   180.00000     3.28243
    26.60000    90.00000   180.00000     3.28241    90.00000   180.00000     3.28241
    26.70000    90.00000   180.00000     3.28239    90.00000   180.00000     3.28239
    26.80000    90.00000   180.00000     3.28238    90.00000   180.00000     3.28238
    26.90000    90.00000   180.00000     3.28236    90.00000   180.00000     3.28236
    27.00000    90.00000   180.00000     3.28234    90.00000   180.00000     3.28234
    27.10000    90.00000   180.00000     3.28232    90.00000   180.00000     3.28232
    27.20000    90.00000   180.00000     3.28230    90.00000   180.00000     3.28230
    27.30000    90.00000   180.00000     3.28228    90.00000   180.00000     3.28228
    27.40000    90.00000   180.00000     3.28227    90.00000   180.00000     3.28227
    27.50000    90.00000   180.00000     3.28225    90.00000   180.00000     3.28225
    27.60000    90.00000   180.00000     3.28223    90.00000   180.00000     3.28223
    27.70000    90.00000   180.00000     3.28221    90.00000   180.00000     3.28221
    27.80000    90.00000   180.00000     3.28219    90.00000   180.00000     3.28219
    27.90000    90.00000   180.00000     3.28217    90.00000   180.00000     3.28217
    28.00000    90.00000   180.00000     3.28216    90.00000   180.00000     3.28216
    28.10000    90.00000   180.00000     3.28214    90.00000   180.00000     3.28214
    28.20000    90.00000   180.00000     3.28212    90.00000   180.00000     3.28212
    28.30000    90.00000   180.00000     3.28210    90.00000   180.00000     3.28210
    28.40000    90.00000   180.00000     3.28208    90.00000   180.00000     3.28208
    28.50000    90.00000   180.00000     3.28206    90.00000   180.00000     3.28206
    28.60000    90.00000   180.00000     3.28205    90.00000   180.00000     3.28205
    28.70000    90.00000   180.00000     3.28203    90.00000   180.00000     3.28203
    28.80000    90.00000   180.00000     3.28201    90.00000   180.00000     3.28201
    28.90000    90.00000   180.00000     3.28199    90.00000   180.00000     3.28199
    29.00000    90.00000   180.00000     3.28197    90.00000   180.00000     3.28197
    29.10000    90.00000   180.00000     3.28195    90.00000   180.00000     3.28195
    29.20000    90.00000   180.00000     3.28193    90.00000   180.00000     3.28193
    29.30000    90.00000   180.00000     3.28192    90.00000   180.00000     3.28192
    29.40000    90.00000   180.00000     3.28190    90.00000   180.00000     3.28190
    29.50000    90.00000   180.00000     3.28188    90.00000   180.00000     3.28188
    29.60000    90.00000   180.00000     3.28186    90.00000   180.00000     3.28186
    29.70000    90.00000   180.00000     3.28184    90.00000   180.00000     3.28184
    29.80000    90.00000   180.00000     3.28182    90.00000   180.00000     3.28182
    29.90000    90.00000   180.00000     3.28180    90.00000   180.00000     3.28180
    30.00000    90.00000   180.00000     3.28178    90.00000   180.00000     3.28178
    30.10000    90.00000   180.00000     3.28177    90.00000   180.00000     3.28177
    30.20000    90.00000   180.00000     3.28175    90.00000   180.00000     3.28175
    30.30000    90.00000   180.00000     3.28173    90.00000   180.00000     3.28173
    30.40000    90.00000   180.00000     3.28171    90.00000   180.00000     3.28171
    30.50000    90.00000   180.00000     3.28169    90.00000   180.00000     3.28169
    30.60000    90.00000   180.00000     3.28167    90.00000   180.00000     3.28167
    30.70000    90.00000   180.00000     3.28165    90.00000   180.00000     3.28165
    30.80000    90.00000   180.00000     3.28163    90.00000   180.00000     3.28163
    30.90000    90.00000   180.00000     3.28161    90.00000   180.00000     3.28161
    31.00000    90.00000   180.00000     3.28159    90.00000   180.00000     3.28159
    31.10000    90.00000   180.00000     3.28158    90.00000   180.00000     3.28158
    31.20000    90.00000   180.00000     3.28156    90.00000   180.00000     3.28156
    31.30000    90.00000   180.00000     3.28154    90.00000   180.00000     3.28154
    31.40000    90.00000   180.00000     3.28152    90.00000   180.00000     3.28152
    31.50000    90.00000   180.00000     3.28150    90.00000   180.00000     3.28150
    31.60000    90.00000   180.00000     3.28148    90.00000   180.00000     3.28148
    31.70000    90.00000   180.00000     3.28146    90.00000   180.00000     3.28146
    31.80000    90.00000   180.00000     3.28144    90.00000   180.00000     3.28144
    31.90000    90.00000   180.00000     3.28142    90.00000   180.00000     3.28142
    32.00000    90.00000   180.00000     3.28140    90.00000   180.00000     3.28140
    32.10000    90.00000   180.00000     3.28138    90.00000   180.00000     3.28138
    32.20000    90.00000   180.00000     3.28136    90.00000   180.00000     3.28136
    32.30000    90.00000   180.00000     3.28134    90.00000   180.00000     3.28134
    32.40000    90.00000   180.00000     3.28133    90.00000   180.00000     3.28133
    32.50000    90.00000   180.00000     3.28131    90.00000   180.00000     3.28131
    32.60000    90.00000   180.00000     3.28129    90.00000   180.00000     3.28129
    32.70000    90.00000   180.00000     3.28127    90.00000   180.00000     3.28127
    32.80000    90.00000   180.00000     3.28125    90.00000   180.00000     3.28125
    32.90000    90.00000   180.00000     3.28123    90.00000   180.00000     3.28123
    33.00000    90.00000   180.00000     3.28121    90.00000   180.00000     3.28121
    33.10000    90.00000   180.00000     3.28119    90.00000   180.00000     3.28119
    33.20000    90.00000   180.00000     3.28117    90.00000   180.00000     3.28117
    33.30000    90.00000   180.00000     3.28115    90.00000   180.00000     3.28115
    33.40000    90.00000   180.00000     3.28113    90.00000   180.00000     3.28113
    33.50000    90.00000   180.00000     3.28111    90.00000   180.00000     3.28111
    33.60000    90.00000   180.00000     3.28109    90.00000   180.00000     3.28109
    33.70000    90.00000   180.00000     3.28107    90.00000   180.00000     3.28107
    33.80000    90.00000   180.00000     3.28105    90.00000   180.00000     3.28105
    33.90000    90.00000   180.00000     3.28103    90.00000   180.00000     3.28103
    34.00000    90.00000   180.00000     3.28101    90.00000   180.00000     3.28101
    34.10000    90.00000   180.00000     3.28099    90.00000   180.00000     3.28099
    34.20000    90.00000   180.00000     3.28097    90.00000   180.00000     3.28097
    34.30000    90.00000   180.00000     3.28095    90.00000   180.00000     3.28095
    34.40000    90.00000   180.00000     3.28093    90.00000   180.00000     3.28093
    34.50000    90.00000   180.00000     3.28091    90.00000   180.00000     3.28091
    34.60000    90.00000   180.00000     3.28089    90.00000   180.00000     3.28089
    34.70000    90.00000   180.00000     3.28087    90.00000   180.00000     3.28087
    34.80000    90.00000   180.00000     3.28085    90.00000   180.00000     3.28085
    34.90000    90.00000   180.00000     3.28083    90.00000   180.00000     3.28083
    35.00000    90.00000   180.00000     3.28081    90.00000   180.00000     3.28081
    35.10000    90.00000   180.00000     3.28079    90.00000   180.00000     3.28079
    35.20000    90.00000   180.00000     3.28077    90.00000   180.00000     3.28077
    35.30000    90.00000   180.00000     3.28075    90.00000   180.00000     3.28075
    35.40000    90.00000   180.00000     3.28073    90.00000   180.00000     3.28073
    35.50000    90.00000   180.00000     3.28071    90.00000   180.00000     3.28071
    35.60000    90.00000   180.00000     3.28069    90.00000   180.00000     3.28069
    35.70000    90.00000   180.00000     3.28067    90.00000   180.00000     3.28067
    35.80000    90.00000   180.00000     3.28065    90.00000   180.00000     3.28065
    35.90000    90.00000   180.00000     3.28063    90.00000   180.00000     3.28063
    36.00000    90.00000   180.00000     3.28061    90.00000   180.00000     3.28061
    36.10000    90.00000   180.00000     3.28059    90.00000   180.00000     3.28059
    36.20000    90.00000   180.00000     3.28057    90.00000   180.00000     3.28057
    36.30000    90.00000   180.00000     3.28055    90.00000   180.00000     3.28055
    36.40000    90.00000   180.00000     3.28053    90.00000   180.00000     3.28053
    36.50000    90.00000   180.00000     3.28051    90.00000   180.00000     3.28051
    36.60000    90.00000   180.00000     3.28049    90.00000   180.00000     3.28049
    36.70000    90.00000   180.00000     3.28047    90.00000   180.00000     3.28047
    36.80000    90.00000   180.00000     3.28045    90.00000   180.00000     3.28045
    36.90000    90.00000   180.00000     3.28043    90.00000   180.00000     3.28043
    37.00000    90.00000   180.00000     3.28041    90.00000   180.00000     3.28041
    37.10000    90.00000   180.00000     3.28039    90.00000   180.00000     3.28039
    37.20000    90.00000   180.00000     3.28037    90.00000   180.00000     3.28037
    37.30000    90.00000   180.00000     3.28035    90.00000   180.00000     3.28035
    37.40000    90.00000   180.00000     3.28033    90.00000   180.00000     3.28033
    37.50000    90.00000   180.00000     3.28031    90.00000   180.00000     3.28031
    37.60000    90.00000   180.00000     3.28029    90.00000   180.00000     3.28029
    37.70000    90.00000   180.00000     3.28027    90.00000   180.00000     3.28027
    37.80000    90.00000   180.00000     3.28025    90.00000   180.00000     3.28025
    37.90000    90.00000   180.00000     3.28023    90.00000   180.00000     3.28023
    38.00000    90.00000   180.00000     3.28021    90.00000   180.00000     3.28021
    38.10000    90.00000   180.00000     3.28018    90.00000   180.00000     3.28018
    38.20000    90.00000   180.00000     3.28016    90.00000   180.00000     3.28016
    38.30000    90.00000   180.00000     3.28014    90.00000   180.00000     3.28014
    38.40000    90.00000   180.00000     3.28012    90.00000   180.00000     3.28012
    38.50000    90.00000   180.00000     3.28010    90.00000   180.00000     3.28010
    38.60000    90.00000   180.00000     3.28008    90.00000   180.00000     3.28008
    38.70000    90.00000   180.00000     3.28006    90.00000   180.00000     3.28006
    38.80000    90.00000   180.00000     3.28004    90.00000   180.00000     3.28004
    38.90000    90.00000   180.00000     3.28002    90.00000   180.00000     3.28002
    39.00000    90.00000   180.00000     3.28000    90.00000   180.00000     3.28000
    39.10000    90.00000   180.00000     3.27998    90.00000   180.00000     3.27998
    39.20000    90.00000   180.00000     3.27996    90.00000   180.00000     3.27996
    39.30000    90.00000   180.00000     3.27994    90.00000   180.00000     3.27994
    39.40000    90.00000   180.00000     3.27991    90.00000   180.00000     3.27991
    39.50000    90.00000   180.00000     3.27989    90.00000   180.00000     3.27989
    39.60000    90.00000   180.00000     3.27987    90.00000   180.00000     3.27987
    39.70000    90.00000   180.00000     3.27985    90.00000   180.00000     3.27985
    39.80000    90.00000   180.00000     3.27983    90.00000   180.00000     3.27983
    39.90000    90.00000   180.00000     3.27981    90.00000   180.00000     3.27981
    40.00000    90.00000   180.00000     3.27979    90.00000   180.00000     3.27979
