 # applied field (T), theta (degree), phi (degree), abs for RE 1-2
     0.00000   180.00000   360.00000     3.51146   180.00000   360.00000     3.51146
     0.10000   179.51239   180.00000     3.51143   179.51239   180.00000     3.51143
     0.20000   178.97589   180.00000     3.51132   178.97589   180.00000     3.51132
     0.30000   178.48817   180.00000     3.51116   178.48817   180.00000     3.51116
     0.40000   178.00034   180.00000     3.51094   178.00034   180.00000     3.51094
     0.50000   177.51237   180.00000     3.51066   177.51237   180.00000     3.51066
     0.60000   176.97530   180.00000     3.51028   176.97530   180.00000     3.51028
     0.70000   176.48692   180.00000     3.50987   176.48692   180.00000     3.50987
     0.80000   175.99829   180.00000     3.50940   175.99829   180.00000     3.50940
     0.90000   175.50937   180.00000     3.50887   175.50937   180.00000     3.50887
     1.00000   174.97109   180.00000     3.50822   174.97109   180.00000     3.50822
     1.10000   174.48146   180.00000     3.50757   174.48146   180.00000     3.50757
     1.20000   173.94233   180.00000     3.50677   173.94233   180.00000     3.50677
     1.30000   173.45184   180.00000     3.50599   173.45184   180.00000     3.50599
     1.40000   172.96089   180.00000     3.50515   172.96089   180.00000     3.50515
     1.50000   172.42017   180.00000     3.50416   172.42017   180.00000     3.50416
     1.60000   171.92814   180.00000     3.50320   171.92814   180.00000     3.50320
     1.70000   171.38616   180.00000     3.50207   171.38616   180.00000     3.50207
     1.80000   170.89290   180.00000     3.50099   170.89290   180.00000     3.50099
     1.90000   170.34949   180.00000     3.49973   170.34949   180.00000     3.49973
     2.00000   169.85486   180.00000     3.49853   169.85486   180.00000     3.49853
     2.10000   169.30986   180.00000     3.49714   169.30986   180.00000     3.49714
     2.20000   168.76397   180.00000     3.49568   168.76397   180.00000     3.49568
     2.30000   168.26697   180.00000     3.49430   168.26697   180.00000     3.49430
     2.40000   167.71926   180.00000     3.49272   167.71926   180.00000     3.49272
     2.50000   167.17053   180.00000     3.49107   167.17053   180.00000     3.49107
     2.60000   166.62074   180.00000     3.48936   166.62074   180.00000     3.48936
     2.70000   166.06985   180.00000     3.48759   166.06985   180.00000     3.48759
     2.80000   165.51783   180.00000     3.48575   165.51783   180.00000     3.48575
     2.90000   164.96463   180.00000     3.48386   164.96463   180.00000     3.48386
     3.00000   164.41022   180.00000     3.48190   164.41022   180.00000     3.48190
     3.10000   163.85455   180.00000     3.47988   163.85455   180.00000     3.47988
     3.20000   163.29759   180.00000     3.47780   163.29759   180.00000     3.47780
     3.30000   162.73930   180.00000     3.47567   162.73930   180.00000     3.47567
     3.40000   162.12863   180.00000     3.47328   162.12863   180.00000     3.47328
     3.50000   161.56744   180.00000     3.47103   161.56744   180.00000     3.47103
     3.60000   160.95352   180.00000     3.46851   160.95352   180.00000     3.46851
     3.70000   160.38929   180.00000     3.46615   160.38929   180.00000     3.46615
     3.80000   159.77196   180.00000     3.46351   159.77196   180.00000     3.46351
     3.90000   159.15279   180.00000     3.46082   159.15279   180.00000     3.46082
     4.00000   158.53174   180.00000     3.45806   158.53174   180.00000     3.45806
     4.10000   157.90877   180.00000     3.45525   157.90877   180.00000     3.45525
     4.20000   157.28384   180.00000     3.45239   157.28384   180.00000     3.45239
     4.30000   156.65691   180.00000     3.44947   156.65691   180.00000     3.44947
     4.40000   156.02794   180.00000     3.44650   156.02794   180.00000     3.44650
     4.50000   155.34415   180.00000     3.44323   155.34415   180.00000     3.44323
     4.60000   154.71083   180.00000     3.44016   154.71083   180.00000     3.44016
     4.70000   154.02225   180.00000     3.43678   154.02225   180.00000     3.43678
     4.80000   153.33111   180.00000     3.43336   153.33111   180.00000     3.43336
     4.90000   152.63739   180.00000     3.42988   152.63739   180.00000     3.42988
     5.00000   151.94104   180.00000     3.42636   151.94104   180.00000     3.42636
     5.10000   151.24202   180.00000     3.42280   151.24202   180.00000     3.42280
     5.20000   150.48617   180.00000     3.41892   150.48617   180.00000     3.41892
     5.30000   149.78153   180.00000     3.41527   149.78153   180.00000     3.41527
     5.40000   149.01956   180.00000     3.41131   149.01956   180.00000     3.41131
     5.50000   148.19953   180.00000     3.40702   148.19953   180.00000     3.40702
     5.60000   147.43085   180.00000     3.40298   147.43085   180.00000     3.40298
     5.70000   146.65888   180.00000     3.39892   146.65888   180.00000     3.39892
     5.80000   145.82806   180.00000     3.39453   145.82806   180.00000     3.39453
     5.90000   144.99343   180.00000     3.39012   144.99343   180.00000     3.39012
     6.00000   144.09888   180.00000     3.38539   144.09888   180.00000     3.38539
     6.10000   143.19995   180.00000     3.38064   143.19995   180.00000     3.38064
     6.20000   142.29663   180.00000     3.37588   142.29663   180.00000     3.37588
     6.30000   141.38890   180.00000     3.37111   141.38890   180.00000     3.37111
     6.40000   140.41958   180.00000     3.36604   140.41958   180.00000     3.36604
     6.50000   139.44528   180.00000     3.36097   139.44528   180.00000     3.36097
     6.60000   138.40822   180.00000     3.35562   138.40822   180.00000     3.35562
     6.70000   137.36563   180.00000     3.35028   137.36563   180.00000     3.35028
     6.80000   136.31751   180.00000     3.34496   136.31751   180.00000     3.34496
     6.90000   135.14646   180.00000     3.33910   135.14646   180.00000     3.33910
     7.00000   133.96871   180.00000     3.33328   133.96871   180.00000     3.33328
     7.10000   132.78433   180.00000     3.32753   132.78433   180.00000     3.32753
     7.20000   131.53366   180.00000     3.32156   131.53366   180.00000     3.32156
     7.30000   130.15570   180.00000     3.31512   130.15570   180.00000     3.31512
     7.40000   128.76940   180.00000     3.30881   128.76940   180.00000     3.30881
     7.50000   127.31410   180.00000     3.30235   127.31410   180.00000     3.30235
     7.60000   125.72773   180.00000     3.29554   125.72773   180.00000     3.29554
     7.70000   124.06993   180.00000     3.28868   124.06993   180.00000     3.28868
     7.80000   122.27792   180.00000     3.28158   122.27792   180.00000     3.28158
     7.90000   120.34986   180.00000     3.27432   120.34986   180.00000     3.27432
     8.00000   118.22115   180.00000     3.26676   118.22115   180.00000     3.26676
     8.10000   115.88899   180.00000     3.25907   115.88899   180.00000     3.25907
     8.20000   113.28717   180.00000     3.25123   113.28717   180.00000     3.25123
     8.30000   110.22003   180.00000     3.24302   110.22003   180.00000     3.24302
     8.40000   106.48759   180.00000     3.23455   106.48759   180.00000     3.23455
     8.50000   101.49668   180.00000     3.22588   101.49668   180.00000     3.22588
     8.60000    90.00000   180.00000     3.21766    90.00000   180.00000     3.21766
     8.70000    90.00000   180.00000     3.21765    90.00000   180.00000     3.21765
     8.80000    90.00000   180.00000     3.21763    90.00000   180.00000     3.21763
     8.90000    90.00000   180.00000     3.21762    90.00000   180.00000     3.21762
     9.00000    90.00000   180.00000     3.21760    90.00000   180.00000     3.21760
     9.10000    90.00000   180.00000     3.21759    90.00000   180.00000     3.21759
     9.20000    90.00000   180.00000     3.21757    90.00000   180.00000     3.21757
     9.30000    90.00000   180.00000     3.21755    90.00000   180.00000     3.21755
     9.40000    90.00000   180.00000     3.21754    90.00000   180.00000     3.21754
     9.50000    90.00000   180.00000     3.21752    90.00000   180.00000     3.21752
     9.60000    90.00000   180.00000     3.21751    90.00000   180.00000     3.21751
     9.70000    90.00000   180.00000     3.21749    90.00000   180.00000     3.21749
     9.80000    90.00000   180.00000     3.21747    90.00000   180.00000     3.21747
     9.90000    90.00000   180.00000     3.21746    90.00000   180.00000     3.21746
    10.00000    90.00000   180.00000     3.21744    90.00000   180.00000     3.21744
    10.10000    90.00000   180.00000     3.21742    90.00000   180.00000     3.21742
    10.20000    90.00000   180.00000     3.21741    90.00000   180.00000     3.21741
    10.30000    90.00000   180.00000     3.21739    90.00000   180.00000     3.21739
    10.40000    90.00000   180.00000     3.21738    90.00000   180.00000     3.21738
    10.50000    90.00000   180.00000     3.21736    90.00000   180.00000     3.21736
    10.60000    90.00000   180.00000     3.21734    90.00000   180.00000     3.21734
    10.70000    90.00000   180.00000     3.21733    90.00000   180.00000     3.21733
    10.80000    90.00000   180.00000     3.21731    90.00000   180.00000     3.21731
    10.90000    90.00000   180.00000     3.21729    90.00000   180.00000     3.21729
    11.00000    90.00000   180.00000     3.21728    90.00000   180.00000     3.21728
    11.10000    90.00000   180.00000     3.21726    90.00000   180.00000     3.21726
    11.20000    90.00000   180.00000     3.21725    90.00000   180.00000     3.21725
    11.30000    90.00000   180.00000     3.21723    90.00000   180.00000     3.21723
    11.40000    90.00000   180.00000     3.21721    90.00000   180.00000     3.21721
    11.50000    90.00000   180.00000     3.21720    90.00000   180.00000     3.21720
    11.60000    90.00000   180.00000     3.21718    90.00000   180.00000     3.21718
    11.70000    90.00000   180.00000     3.21716    90.00000   180.00000     3.21716
    11.80000    90.00000   180.00000     3.21715    90.00000   180.00000     3.21715
    11.90000    90.00000   180.00000     3.21713    90.00000   180.00000     3.21713
    12.00000    90.00000   180.00000     3.21711    90.00000   180.00000     3.21711
    12.10000    90.00000   180.00000     3.21710    90.00000   180.00000     3.21710
    12.20000    90.00000   180.00000     3.21708    90.00000   180.00000     3.21708
    12.30000    90.00000   180.00000     3.21706    90.00000   180.00000     3.21706
    12.40000    90.00000   180.00000     3.21705    90.00000   180.00000     3.21705
    12.50000    90.00000   180.00000     3.21703    90.00000   180.00000     3.21703
    12.60000    90.00000   180.00000     3.21701    90.00000   180.00000     3.21701
    12.70000    90.00000   180.00000     3.21700    90.00000   180.00000     3.21700
    12.80000    90.00000   180.00000     3.21698    90.00000   180.00000     3.21698
    12.90000    90.00000   180.00000     3.21696    90.00000   180.00000     3.21696
    13.00000    90.00000   180.00000     3.21695    90.00000   180.00000     3.21695
    13.10000    90.00000   180.00000     3.21693    90.00000   180.00000     3.21693
    13.20000    90.00000   180.00000     3.21691    90.00000   180.00000     3.21691
    13.30000    90.00000   180.00000     3.21690    90.00000   180.00000     3.21690
    13.40000    90.00000   180.00000     3.21688    90.00000   180.00000     3.21688
    13.50000    90.00000   180.00000     3.21686    90.00000   180.00000     3.21686
    13.60000    90.00000   180.00000     3.21685    90.00000   180.00000     3.21685
    13.70000    90.00000   180.00000     3.21683    90.00000   180.00000     3.21683
    13.80000    90.00000   180.00000     3.21681    90.00000   180.00000     3.21681
    13.90000    90.00000   180.00000     3.21679    90.00000   180.00000     3.21679
    14.00000    90.00000   180.00000     3.21678    90.00000   180.00000     3.21678
    14.10000    90.00000   180.00000     3.21676    90.00000   180.00000     3.21676
    14.20000    90.00000   180.00000     3.21674    90.00000   180.00000     3.21674
    14.30000    90.00000   180.00000     3.21673    90.00000   180.00000     3.21673
    14.40000    90.00000   180.00000     3.21671    90.00000   180.00000     3.21671
    14.50000    90.00000   180.00000     3.21669    90.00000   180.00000     3.21669
    14.60000    90.00000   180.00000     3.21667    90.00000   180.00000     3.21667
    14.70000    90.00000   180.00000     3.21666    90.00000   180.00000     3.21666
    14.80000    90.00000   180.00000     3.21664    90.00000   180.00000     3.21664
    14.90000    90.00000   180.00000     3.21662    90.00000   180.00000     3.21662
    15.00000    90.00000   180.00000     3.21661    90.00000   180.00000     3.21661
    15.10000    90.00000   180.00000     3.21659    90.00000   180.00000     3.21659
    15.20000    90.00000   180.00000     3.21657    90.00000   180.00000     3.21657
    15.30000    90.00000   180.00000     3.21655    90.00000   180.00000     3.21655
    15.40000    90.00000   180.00000     3.21654    90.00000   180.00000     3.21654
    15.50000    90.00000   180.00000     3.21652    90.00000   180.00000     3.21652
    15.60000    90.00000   180.00000     3.21650    90.00000   180.00000     3.21650
    15.70000    90.00000   180.00000     3.21648    90.00000   180.00000     3.21648
    15.80000    90.00000   180.00000     3.21647    90.00000   180.00000     3.21647
    15.90000    90.00000   180.00000     3.21645    90.00000   180.00000     3.21645
    16.00000    90.00000   180.00000     3.21643    90.00000   180.00000     3.21643
    16.10000    90.00000   180.00000     3.21641    90.00000   180.00000     3.21641
    16.20000    90.00000   180.00000     3.21640    90.00000   180.00000     3.21640
    16.30000    90.00000   180.00000     3.21638    90.00000   180.00000     3.21638
    16.40000    90.00000   180.00000     3.21636    90.00000   180.00000     3.21636
    16.50000    90.00000   180.00000     3.21634    90.00000   180.00000     3.21634
    16.60000    90.00000   180.00000     3.21633    90.00000   180.00000     3.21633
    16.70000    90.00000   180.00000     3.21631    90.00000   180.00000     3.21631
    16.80000    90.00000   180.00000     3.21629    90.00000   180.00000     3.21629
    16.90000    90.00000   180.00000     3.21627    90.00000   180.00000     3.21627
    17.00000    90.00000   180.00000     3.21626    90.00000   180.00000     3.21626
    17.10000    90.00000   180.00000     3.21624    90.00000   180.00000     3.21624
    17.20000    90.00000   180.00000     3.21622    90.00000   180.00000     3.21622
    17.30000    90.00000   180.00000     3.21620    90.00000   180.00000     3.21620
    17.40000    90.00000   180.00000     3.21619    90.00000   180.00000     3.21619
    17.50000    90.00000   180.00000     3.21617    90.00000   180.00000     3.21617
    17.60000    90.00000   180.00000     3.21615    90.00000   180.00000     3.21615
    17.70000    90.00000   180.00000     3.21613    90.00000   180.00000     3.21613
    17.80000    90.00000   180.00000     3.21611    90.00000   180.00000     3.21611
    17.90000    90.00000   180.00000     3.21610    90.00000   180.00000     3.21610
    18.00000    90.00000   180.00000     3.21608    90.00000   180.00000     3.21608
    18.10000    90.00000   180.00000     3.21606    90.00000   180.00000     3.21606
    18.20000    90.00000   180.00000     3.21604    90.00000   180.00000     3.21604
    18.30000    90.00000   180.00000     3.21602    90.00000   180.00000     3.21602
    18.40000    90.00000   180.00000     3.21601    90.00000   180.00000     3.21601
    18.50000    90.00000   180.00000     3.21599    90.00000   180.00000     3.21599
    18.60000    90.00000   180.00000     3.21597    90.00000   180.00000     3.21597
    18.70000    90.00000   180.00000     3.21595    90.00000   180.00000     3.21595
    18.80000    90.00000   180.00000     3.21593    90.00000   180.00000     3.21593
    18.90000    90.00000   180.00000     3.21592    90.00000   180.00000     3.21592
    19.00000    90.00000   180.00000     3.21590    90.00000   180.00000     3.21590
    19.10000    90.00000   180.00000     3.21588    90.00000   180.00000     3.21588
    19.20000    90.00000   180.00000     3.21586    90.00000   180.00000     3.21586
    19.30000    90.00000   180.00000     3.21584    90.00000   180.00000     3.21584
    19.40000    90.00000   180.00000     3.21583    90.00000   180.00000     3.21583
    19.50000    90.00000   180.00000     3.21581    90.00000   180.00000     3.21581
    19.60000    90.00000   180.00000     3.21579    90.00000   180.00000     3.21579
    19.70000    90.00000   180.00000     3.21577    90.00000   180.00000     3.21577
    19.80000    90.00000   180.00000     3.21575    90.00000   180.00000     3.21575
    19.90000    90.00000   180.00000     3.21573    90.00000   180.00000     3.21573
    20.00000    90.00000   180.00000     3.21572    90.00000   180.00000     3.21572
    20.10000    90.00000   180.00000     3.21570    90.00000   180.00000     3.21570
    20.20000    90.00000   180.00000     3.21568    90.00000   180.00000     3.21568
    20.30000    90.00000   180.00000     3.21566    90.00000   180.00000     3.21566
    20.40000    90.00000   180.00000     3.21564    90.00000   180.00000     3.21564
    20.50000    90.00000   180.00000     3.21562    90.00000   180.00000     3.21562
    20.60000    90.00000   180.00000     3.21561    90.00000   180.00000     3.21561
    20.70000    90.00000   180.00000     3.21559    90.00000   180.00000     3.21559
    20.80000    90.00000   180.00000     3.21557    90.00000   180.00000     3.21557
    20.90000    90.00000   180.00000     3.21555    90.00000   180.00000     3.21555
    21.00000    90.00000   180.00000     3.21553    90.00000   180.00000     3.21553
    21.10000    90.00000   180.00000     3.21551    90.00000   180.00000     3.21551
    21.20000    90.00000   180.00000     3.21549    90.00000   180.00000     3.21549
    21.30000    90.00000   180.00000     3.21548    90.00000   180.00000     3.21548
    21.40000    90.00000   180.00000     3.21546    90.00000   180.00000     3.21546
    21.50000    90.00000   180.00000     3.21544    90.00000   180.00000     3.21544
    21.60000    90.00000   180.00000     3.21542    90.00000   180.00000     3.21542
    21.70000    90.00000   180.00000     3.21540    90.00000   180.00000     3.21540
    21.80000    90.00000   180.00000     3.21538    90.00000   180.00000     3.21538
    21.90000    90.00000   180.00000     3.21536    90.00000   180.00000     3.21536
    22.00000    90.00000   180.00000     3.21534    90.00000   180.00000     3.21534
    22.10000    90.00000   180.00000     3.21533    90.00000   180.00000     3.21533
    22.20000    90.00000   180.00000     3.21531    90.00000   180.00000     3.21531
    22.30000    90.00000   180.00000     3.21529    90.00000   180.00000     3.21529
    22.40000    90.00000   180.00000     3.21527    90.00000   180.00000     3.21527
    22.50000    90.00000   180.00000     3.21525    90.00000   180.00000     3.21525
    22.60000    90.00000   180.00000     3.21523    90.00000   180.00000     3.21523
    22.70000    90.00000   180.00000     3.21521    90.00000   180.00000     3.21521
    22.80000    90.00000   180.00000     3.21519    90.00000   180.00000     3.21519
    22.90000    90.00000   180.00000     3.21517    90.00000   180.00000     3.21517
    23.00000    90.00000   180.00000     3.21515    90.00000   180.00000     3.21515
    23.10000    90.00000   180.00000     3.21514    90.00000   180.00000     3.21514
    23.20000    90.00000   180.00000     3.21512    90.00000   180.00000     3.21512
    23.30000    90.00000   180.00000     3.21510    90.00000   180.00000     3.21510
    23.40000    90.00000   180.00000     3.21508    90.00000   180.00000     3.21508
    23.50000    90.00000   180.00000     3.21506    90.00000   180.00000     3.21506
    23.60000    90.00000   180.00000     3.21504    90.00000   180.00000     3.21504
    23.70000    90.00000   180.00000     3.21502    90.00000   180.00000     3.21502
    23.80000    90.00000   180.00000     3.21500    90.00000   180.00000     3.21500
    23.90000    90.00000   180.00000     3.21498    90.00000   180.00000     3.21498
    24.00000    90.00000   180.00000     3.21496    90.00000   180.00000     3.21496
    24.10000    90.00000   180.00000     3.21494    90.00000   180.00000     3.21494
    24.20000    90.00000   180.00000     3.21493    90.00000   180.00000     3.21493
    24.30000    90.00000   180.00000     3.21491    90.00000   180.00000     3.21491
    24.40000    90.00000   180.00000     3.21489    90.00000   180.00000     3.21489
    24.50000    90.00000   180.00000     3.21487    90.00000   180.00000     3.21487
    24.60000    90.00000   180.00000     3.21485    90.00000   180.00000     3.21485
    24.70000    90.00000   180.00000     3.21483    90.00000   180.00000     3.21483
    24.80000    90.00000   180.00000     3.21481    90.00000   180.00000     3.21481
    24.90000    90.00000   180.00000     3.21479    90.00000   180.00000     3.21479
    25.00000    90.00000   180.00000     3.21477    90.00000   180.00000     3.21477
    25.10000    90.00000   180.00000     3.21475    90.00000   180.00000     3.21475
    25.20000    90.00000   180.00000     3.21473    90.00000   180.00000     3.21473
    25.30000    90.00000   180.00000     3.21471    90.00000   180.00000     3.21471
    25.40000    90.00000   180.00000     3.21469    90.00000   180.00000     3.21469
    25.50000    90.00000   180.00000     3.21467    90.00000   180.00000     3.21467
    25.60000    90.00000   180.00000     3.21465    90.00000   180.00000     3.21465
    25.70000    90.00000   180.00000     3.21463    90.00000   180.00000     3.21463
    25.80000    90.00000   180.00000     3.21461    90.00000   180.00000     3.21461
    25.90000    90.00000   180.00000     3.21459    90.00000   180.00000     3.21459
    26.00000    90.00000   180.00000     3.21457    90.00000   180.00000     3.21457
    26.10000    90.00000   180.00000     3.21455    90.00000   180.00000     3.21455
    26.20000    90.00000   180.00000     3.21454    90.00000   180.00000     3.21454
    26.30000    90.00000   180.00000     3.21452    90.00000   180.00000     3.21452
    26.40000    90.00000   180.00000     3.21450    90.00000   180.00000     3.21450
    26.50000    90.00000   180.00000     3.21448    90.00000   180.00000     3.21448
    26.60000    90.00000   180.00000     3.21446    90.00000   180.00000     3.21446
    26.70000    90.00000   180.00000     3.21444    90.00000   180.00000     3.21444
    26.80000    90.00000   180.00000     3.21442    90.00000   180.00000     3.21442
    26.90000    90.00000   180.00000     3.21440    90.00000   180.00000     3.21440
    27.00000    90.00000   180.00000     3.21438    90.00000   180.00000     3.21438
    27.10000    90.00000   180.00000     3.21436    90.00000   180.00000     3.21436
    27.20000    90.00000   180.00000     3.21434    90.00000   180.00000     3.21434
    27.30000    90.00000   180.00000     3.21432    90.00000   180.00000     3.21432
    27.40000    90.00000   180.00000     3.21430    90.00000   180.00000     3.21430
    27.50000    90.00000   180.00000     3.21428    90.00000   180.00000     3.21428
    27.60000    90.00000   180.00000     3.21426    90.00000   180.00000     3.21426
    27.70000    90.00000   180.00000     3.21424    90.00000   180.00000     3.21424
    27.80000    90.00000   180.00000     3.21422    90.00000   180.00000     3.21422
    27.90000    90.00000   180.00000     3.21420    90.00000   180.00000     3.21420
    28.00000    90.00000   180.00000     3.21418    90.00000   180.00000     3.21418
    28.10000    90.00000   180.00000     3.21416    90.00000   180.00000     3.21416
    28.20000    90.00000   180.00000     3.21414    90.00000   180.00000     3.21414
    28.30000    90.00000   180.00000     3.21412    90.00000   180.00000     3.21412
    28.40000    90.00000   180.00000     3.21410    90.00000   180.00000     3.21410
    28.50000    90.00000   180.00000     3.21408    90.00000   180.00000     3.21408
    28.60000    90.00000   180.00000     3.21406    90.00000   180.00000     3.21406
    28.70000    90.00000   180.00000     3.21403    90.00000   180.00000     3.21403
    28.80000    90.00000   180.00000     3.21401    90.00000   180.00000     3.21401
    28.90000    90.00000   180.00000     3.21399    90.00000   180.00000     3.21399
    29.00000    90.00000   180.00000     3.21397    90.00000   180.00000     3.21397
    29.10000    90.00000   180.00000     3.21395    90.00000   180.00000     3.21395
    29.20000    90.00000   180.00000     3.21393    90.00000   180.00000     3.21393
    29.30000    90.00000   180.00000     3.21391    90.00000   180.00000     3.21391
    29.40000    90.00000   180.00000     3.21389    90.00000   180.00000     3.21389
    29.50000    90.00000   180.00000     3.21387    90.00000   180.00000     3.21387
    29.60000    90.00000   180.00000     3.21385    90.00000   180.00000     3.21385
    29.70000    90.00000   180.00000     3.21383    90.00000   180.00000     3.21383
    29.80000    90.00000   180.00000     3.21381    90.00000   180.00000     3.21381
    29.90000    90.00000   180.00000     3.21379    90.00000   180.00000     3.21379
    30.00000    90.00000   180.00000     3.21377    90.00000   180.00000     3.21377
    30.10000    90.00000   180.00000     3.21375    90.00000   180.00000     3.21375
    30.20000    90.00000   180.00000     3.21373    90.00000   180.00000     3.21373
    30.30000    90.00000   180.00000     3.21371    90.00000   180.00000     3.21371
    30.40000    90.00000   180.00000     3.21369    90.00000   180.00000     3.21369
    30.50000    90.00000   180.00000     3.21367    90.00000   180.00000     3.21367
    30.60000    90.00000   180.00000     3.21365    90.00000   180.00000     3.21365
    30.70000    90.00000   180.00000     3.21362    90.00000   180.00000     3.21362
    30.80000    90.00000   180.00000     3.21360    90.00000   180.00000     3.21360
    30.90000    90.00000   180.00000     3.21358    90.00000   180.00000     3.21358
    31.00000    90.00000   180.00000     3.21356    90.00000   180.00000     3.21356
    31.10000    90.00000   180.00000     3.21354    90.00000   180.00000     3.21354
    31.20000    90.00000   180.00000     3.21352    90.00000   180.00000     3.21352
    31.30000    90.00000   180.00000     3.21350    90.00000   180.00000     3.21350
    31.40000    90.00000   180.00000     3.21348    90.00000   180.00000     3.21348
    31.50000    90.00000   180.00000     3.21346    90.00000   180.00000     3.21346
    31.60000    90.00000   180.00000     3.21344    90.00000   180.00000     3.21344
    31.70000    90.00000   180.00000     3.21342    90.00000   180.00000     3.21342
    31.80000    90.00000   180.00000     3.21340    90.00000   180.00000     3.21340
    31.90000    90.00000   180.00000     3.21337    90.00000   180.00000     3.21337
    32.00000    90.00000   180.00000     3.21335    90.00000   180.00000     3.21335
    32.10000    90.00000   180.00000     3.21333    90.00000   180.00000     3.21333
    32.20000    90.00000   180.00000     3.21331    90.00000   180.00000     3.21331
    32.30000    90.00000   180.00000     3.21329    90.00000   180.00000     3.21329
    32.40000    90.00000   180.00000     3.21327    90.00000   180.00000     3.21327
    32.50000    90.00000   180.00000     3.21325    90.00000   180.00000     3.21325
    32.60000    90.00000   180.00000     3.21323    90.00000   180.00000     3.21323
    32.70000    90.00000   180.00000     3.21321    90.00000   180.00000     3.21321
    32.80000    90.00000   180.00000     3.21318    90.00000   180.00000     3.21318
    32.90000    90.00000   180.00000     3.21316    90.00000   180.00000     3.21316
    33.00000    90.00000   180.00000     3.21314    90.00000   180.00000     3.21314
    33.10000    90.00000   180.00000     3.21312    90.00000   180.00000     3.21312
    33.20000    90.00000   180.00000     3.21310    90.00000   180.00000     3.21310
    33.30000    90.00000   180.00000     3.21308    90.00000   180.00000     3.21308
    33.40000    90.00000   180.00000     3.21306    90.00000   180.00000     3.21306
    33.50000    90.00000   180.00000     3.21304    90.00000   180.00000     3.21304
    33.60000    90.00000   180.00000     3.21301    90.00000   180.00000     3.21301
    33.70000    90.00000   180.00000     3.21299    90.00000   180.00000     3.21299
    33.80000    90.00000   180.00000     3.21297    90.00000   180.00000     3.21297
    33.90000    90.00000   180.00000     3.21295    90.00000   180.00000     3.21295
    34.00000    90.00000   180.00000     3.21293    90.00000   180.00000     3.21293
    34.10000    90.00000   180.00000     3.21291    90.00000   180.00000     3.21291
    34.20000    90.00000   180.00000     3.21289    90.00000   180.00000     3.21289
    34.30000    90.00000   180.00000     3.21286    90.00000   180.00000     3.21286
    34.40000    90.00000   180.00000     3.21284    90.00000   180.00000     3.21284
    34.50000    90.00000   180.00000     3.21282    90.00000   180.00000     3.21282
    34.60000    90.00000   180.00000     3.21280    90.00000   180.00000     3.21280
    34.70000    90.00000   180.00000     3.21278    90.00000   180.00000     3.21278
    34.80000    90.00000   180.00000     3.21276    90.00000   180.00000     3.21276
    34.90000    90.00000   180.00000     3.21273    90.00000   180.00000     3.21273
    35.00000    90.00000   180.00000     3.21271    90.00000   180.00000     3.21271
    35.10000    90.00000   180.00000     3.21269    90.00000   180.00000     3.21269
    35.20000    90.00000   180.00000     3.21267    90.00000   180.00000     3.21267
    35.30000    90.00000   180.00000     3.21265    90.00000   180.00000     3.21265
    35.40000    90.00000   180.00000     3.21263    90.00000   180.00000     3.21263
    35.50000    90.00000   180.00000     3.21260    90.00000   180.00000     3.21260
    35.60000    90.00000   180.00000     3.21258    90.00000   180.00000     3.21258
    35.70000    90.00000   180.00000     3.21256    90.00000   180.00000     3.21256
    35.80000    90.00000   180.00000     3.21254    90.00000   180.00000     3.21254
    35.90000    90.00000   180.00000     3.21252    90.00000   180.00000     3.21252
    36.00000    90.00000   180.00000     3.21250    90.00000   180.00000     3.21250
    36.10000    90.00000   180.00000     3.21247    90.00000   180.00000     3.21247
    36.20000    90.00000   180.00000     3.21245    90.00000   180.00000     3.21245
    36.30000    90.00000   180.00000     3.21243    90.00000   180.00000     3.21243
    36.40000    90.00000   180.00000     3.21241    90.00000   180.00000     3.21241
    36.50000    90.00000   180.00000     3.21239    90.00000   180.00000     3.21239
    36.60000    90.00000   180.00000     3.21236    90.00000   180.00000     3.21236
    36.70000    90.00000   180.00000     3.21234    90.00000   180.00000     3.21234
    36.80000    90.00000   180.00000     3.21232    90.00000   180.00000     3.21232
    36.90000    90.00000   180.00000     3.21230    90.00000   180.00000     3.21230
    37.00000    90.00000   180.00000     3.21227    90.00000   180.00000     3.21227
    37.10000    90.00000   180.00000     3.21225    90.00000   180.00000     3.21225
    37.20000    90.00000   180.00000     3.21223    90.00000   180.00000     3.21223
    37.30000    90.00000   180.00000     3.21221    90.00000   180.00000     3.21221
    37.40000    90.00000   180.00000     3.21219    90.00000   180.00000     3.21219
    37.50000    90.00000   180.00000     3.21216    90.00000   180.00000     3.21216
    37.60000    90.00000   180.00000     3.21214    90.00000   180.00000     3.21214
    37.70000    90.00000   180.00000     3.21212    90.00000   180.00000     3.21212
    37.80000    90.00000   180.00000     3.21210    90.00000   180.00000     3.21210
    37.90000    90.00000   180.00000     3.21207    90.00000   180.00000     3.21207
    38.00000    90.00000   180.00000     3.21205    90.00000   180.00000     3.21205
    38.10000    90.00000   180.00000     3.21203    90.00000   180.00000     3.21203
    38.20000    90.00000   180.00000     3.21201    90.00000   180.00000     3.21201
    38.30000    90.00000   180.00000     3.21199    90.00000   180.00000     3.21199
    38.40000    90.00000   180.00000     3.21196    90.00000   180.00000     3.21196
    38.50000    90.00000   180.00000     3.21194    90.00000   180.00000     3.21194
    38.60000    90.00000   180.00000     3.21192    90.00000   180.00000     3.21192
    38.70000    90.00000   180.00000     3.21190    90.00000   180.00000     3.21190
    38.80000    90.00000   180.00000     3.21187    90.00000   180.00000     3.21187
    38.90000    90.00000   180.00000     3.21185    90.00000   180.00000     3.21185
    39.00000    90.00000   180.00000     3.21183    90.00000   180.00000     3.21183
    39.10000    90.00000   180.00000     3.21181    90.00000   180.00000     3.21181
    39.20000    90.00000   180.00000     3.21178    90.00000   180.00000     3.21178
    39.30000    90.00000   180.00000     3.21176    90.00000   180.00000     3.21176
    39.40000    90.00000   180.00000     3.21174    90.00000   180.00000     3.21174
    39.50000    90.00000   180.00000     3.21171    90.00000   180.00000     3.21171
    39.60000    90.00000   180.00000     3.21169    90.00000   180.00000     3.21169
    39.70000    90.00000   180.00000     3.21167    90.00000   180.00000     3.21167
    39.80000    90.00000   180.00000     3.21165    90.00000   180.00000     3.21165
    39.90000    90.00000   180.00000     3.21162    90.00000   180.00000     3.21162
    40.00000    90.00000   180.00000     3.21160    90.00000   180.00000     3.21160
