 # applied field (T), theta (degree), phi (degree), abs for RE 3-4
     0.00000     0.00000     0.00000     4.69837     0.00000     0.00000     4.69837
     0.10000     0.46166   360.00000     4.69836     0.35960   360.00000     4.69837
     0.20000     0.98060   360.00000     4.69833     0.76376   360.00000     4.69836
     0.30000     1.44256   360.00000     4.69829     1.12350   360.00000     4.69835
     0.40000     1.90479   360.00000     4.69823     1.48335   360.00000     4.69833
     0.50000     2.42469   360.00000     4.69815     1.88796   360.00000     4.69831
     0.60000     2.88780   360.00000     4.69806     2.24822   360.00000     4.69828
     0.70000     3.40892   360.00000     4.69794     2.65338   360.00000     4.69825
     0.80000     3.87330   360.00000     4.69781     3.01423   360.00000     4.69822
     0.90000     4.39606   360.00000     4.69765     3.42014   360.00000     4.69817
     1.00000    90.00000   360.00000     4.71968    90.00000   360.00000     4.67827
     1.10000    90.00000   360.00000     4.71967    90.00000   360.00000     4.67825
     1.20000    90.00000   360.00000     4.71965    90.00000   360.00000     4.67823
     1.30000    90.00000   360.00000     4.71963    90.00000   360.00000     4.67821
     1.40000    90.00000   360.00000     4.71961    90.00000   360.00000     4.67819
     1.50000    90.00000   360.00000     4.71960    90.00000   360.00000     4.67817
     1.60000    90.00000   360.00000     4.71958    90.00000   360.00000     4.67815
     1.70000    90.00000   360.00000     4.71956    90.00000   360.00000     4.67813
     1.80000    90.00000   360.00000     4.71954    90.00000   360.00000     4.67811
     1.90000    90.00000   360.00000     4.71953    90.00000   360.00000     4.67809
     2.00000    90.00000   360.00000     4.71951    90.00000   360.00000     4.67807
     2.10000    90.00000   360.00000     4.71949    90.00000   360.00000     4.67805
     2.20000    90.00000   360.00000     4.71948    90.00000   360.00000     4.67803
     2.30000    90.00000   360.00000     4.71946    90.00000   360.00000     4.67801
     2.40000    90.00000   360.00000     4.71944    90.00000   360.00000     4.67799
     2.50000    90.00000   360.00000     4.71942    90.00000   360.00000     4.67797
     2.60000    90.00000   360.00000     4.71941    90.00000   360.00000     4.67795
     2.70000    90.00000   360.00000     4.71939    90.00000   360.00000     4.67793
     2.80000    90.00000   360.00000     4.71937    90.00000   360.00000     4.67791
     2.90000    90.00000   360.00000     4.71935    90.00000   360.00000     4.67789
     3.00000    90.00000   360.00000     4.71934    90.00000   360.00000     4.67787
     3.10000    90.00000   360.00000     4.71932    90.00000   360.00000     4.67785
     3.20000    90.00000   360.00000     4.71930    90.00000   360.00000     4.67783
     3.30000    90.00000   360.00000     4.71929    90.00000   360.00000     4.67781
     3.40000    90.00000   360.00000     4.71927    90.00000   360.00000     4.67779
     3.50000    90.00000   360.00000     4.71925    90.00000   360.00000     4.67777
     3.60000    90.00000   360.00000     4.71923    90.00000   360.00000     4.67775
     3.70000    90.00000   360.00000     4.71922    90.00000   360.00000     4.67773
     3.80000    90.00000   360.00000     4.71920    90.00000   360.00000     4.67771
     3.90000    90.00000   360.00000     4.71918    90.00000   360.00000     4.67769
     4.00000    90.00000   360.00000     4.71916    90.00000   360.00000     4.67767
     4.10000    90.00000   360.00000     4.71915    90.00000   360.00000     4.67765
     4.20000    90.00000   360.00000     4.71913    90.00000   360.00000     4.67763
     4.30000    90.00000   360.00000     4.71911    90.00000   360.00000     4.67761
     4.40000    90.00000   360.00000     4.71909    90.00000   360.00000     4.67758
     4.50000    90.00000   360.00000     4.71908    90.00000   360.00000     4.67756
     4.60000    90.00000   360.00000     4.71906    90.00000   360.00000     4.67754
     4.70000    90.00000   360.00000     4.71904    90.00000   360.00000     4.67752
     4.80000    90.00000   360.00000     4.71903    90.00000   360.00000     4.67750
     4.90000    90.00000   360.00000     4.71901    90.00000   360.00000     4.67748
     5.00000    90.00000   360.00000     4.71899    90.00000   360.00000     4.67746
     5.10000    90.00000   360.00000     4.71897    90.00000   360.00000     4.67744
     5.20000    90.00000   360.00000     4.71896    90.00000   360.00000     4.67742
     5.30000    90.00000   360.00000     4.71894    90.00000   360.00000     4.67740
     5.40000    90.00000   360.00000     4.71892    90.00000   360.00000     4.67738
     5.50000    90.00000   360.00000     4.71890    90.00000   360.00000     4.67736
     5.60000    90.00000   360.00000     4.71889    90.00000   360.00000     4.67734
     5.70000    90.00000   360.00000     4.71887    90.00000   360.00000     4.67732
     5.80000    90.00000   360.00000     4.71885    90.00000   360.00000     4.67730
     5.90000    90.00000   360.00000     4.71884    90.00000   360.00000     4.67728
     6.00000    90.00000   360.00000     4.71882    90.00000   360.00000     4.67726
     6.10000    90.00000   360.00000     4.71880    90.00000   360.00000     4.67724
     6.20000    90.00000   360.00000     4.71878    90.00000   360.00000     4.67722
     6.30000    90.00000   360.00000     4.71877    90.00000   360.00000     4.67720
     6.40000    90.00000   360.00000     4.71875    90.00000   360.00000     4.67718
     6.50000    90.00000   360.00000     4.71873    90.00000   360.00000     4.67716
     6.60000    90.00000   360.00000     4.71871    90.00000   360.00000     4.67714
     6.70000    90.00000   360.00000     4.71870    90.00000   360.00000     4.67712
     6.80000    90.00000   360.00000     4.71868    90.00000   360.00000     4.67710
     6.90000    90.00000   360.00000     4.71866    90.00000   360.00000     4.67708
     7.00000    90.00000   360.00000     4.71864    90.00000   360.00000     4.67706
     7.10000    90.00000   360.00000     4.71863    90.00000   360.00000     4.67704
     7.20000    90.00000   360.00000     4.71861    90.00000   360.00000     4.67702
     7.30000    90.00000   360.00000     4.71859    90.00000   360.00000     4.67700
     7.40000    90.00000   360.00000     4.71857    90.00000   360.00000     4.67697
     7.50000    90.00000   360.00000     4.71856    90.00000   360.00000     4.67695
     7.60000    90.00000   360.00000     4.71854    90.00000   360.00000     4.67693
     7.70000    90.00000   360.00000     4.71852    90.00000   360.00000     4.67691
     7.80000    90.00000   360.00000     4.71851    90.00000   360.00000     4.67689
     7.90000    90.00000   360.00000     4.71849    90.00000   360.00000     4.67687
     8.00000    90.00000   360.00000     4.71847    90.00000   360.00000     4.67685
     8.10000    90.00000   360.00000     4.71845    90.00000   360.00000     4.67683
     8.20000    90.00000   360.00000     4.71844    90.00000   360.00000     4.67681
     8.30000    90.00000   360.00000     4.71842    90.00000   360.00000     4.67679
     8.40000    90.00000   360.00000     4.71840    90.00000   360.00000     4.67677
     8.50000    90.00000   360.00000     4.71838    90.00000   360.00000     4.67675
     8.60000    90.00000   360.00000     4.71837    90.00000   360.00000     4.67673
     8.70000    90.00000   360.00000     4.71835    90.00000   360.00000     4.67671
     8.80000    90.00000   360.00000     4.71833    90.00000   360.00000     4.67669
     8.90000    90.00000   360.00000     4.71831    90.00000   360.00000     4.67667
     9.00000    90.00000   360.00000     4.71830    90.00000   360.00000     4.67665
     9.10000    90.00000   360.00000     4.71828    90.00000   360.00000     4.67663
     9.20000    90.00000   360.00000     4.71826    90.00000   360.00000     4.67661
     9.30000    90.00000   360.00000     4.71824    90.00000   360.00000     4.67659
     9.40000    90.00000   360.00000     4.71823    90.00000   360.00000     4.67657
     9.50000    90.00000   360.00000     4.71821    90.00000   360.00000     4.67655
     9.60000    90.00000   360.00000     4.71819    90.00000   360.00000     4.67653
     9.70000    90.00000   360.00000     4.71817    90.00000   360.00000     4.67650
     9.80000    90.00000   360.00000     4.71816    90.00000   360.00000     4.67648
     9.90000    90.00000   360.00000     4.71814    90.00000   360.00000     4.67646
    10.00000    90.00000   360.00000     4.71812    90.00000   360.00000     4.67644
    10.10000    90.00000   360.00000     4.71810    90.00000   360.00000     4.67642
    10.20000    90.00000   360.00000     4.71809    90.00000   360.00000     4.67640
    10.30000    90.00000   360.00000     4.71807    90.00000   360.00000     4.67638
    10.40000    90.00000   360.00000     4.71805    90.00000   360.00000     4.67636
    10.50000    90.00000   360.00000     4.71804    90.00000   360.00000     4.67634
    10.60000    90.00000   360.00000     4.71802    90.00000   360.00000     4.67632
    10.70000    90.00000   360.00000     4.71800    90.00000   360.00000     4.67630
    10.80000    90.00000   360.00000     4.71798    90.00000   360.00000     4.67628
    10.90000    90.00000   360.00000     4.71797    90.00000   360.00000     4.67626
    11.00000    90.00000   360.00000     4.71795    90.00000   360.00000     4.67624
    11.10000    90.00000   360.00000     4.71793    90.00000   360.00000     4.67622
    11.20000    90.00000   360.00000     4.71791    90.00000   360.00000     4.67620
    11.30000    90.00000   360.00000     4.71790    90.00000   360.00000     4.67618
    11.40000    90.00000   360.00000     4.71788    90.00000   360.00000     4.67616
    11.50000    90.00000   360.00000     4.71786    90.00000   360.00000     4.67614
    11.60000    90.00000   360.00000     4.71784    90.00000   360.00000     4.67612
    11.70000    90.00000   360.00000     4.71783    90.00000   360.00000     4.67609
    11.80000    90.00000   360.00000     4.71781    90.00000   360.00000     4.67607
    11.90000    90.00000   360.00000     4.71779    90.00000   360.00000     4.67605
    12.00000    90.00000   360.00000     4.71777    90.00000   360.00000     4.67603
    12.10000    90.00000   360.00000     4.71776    90.00000   360.00000     4.67601
    12.20000    90.00000   360.00000     4.71774    90.00000   360.00000     4.67599
    12.30000    90.00000   360.00000     4.71772    90.00000   360.00000     4.67597
    12.40000    90.00000   360.00000     4.71770    90.00000   360.00000     4.67595
    12.50000    90.00000   360.00000     4.71769    90.00000   360.00000     4.67593
    12.60000    90.00000   360.00000     4.71767    90.00000   360.00000     4.67591
    12.70000    90.00000   360.00000     4.71765    90.00000   360.00000     4.67589
    12.80000    90.00000   360.00000     4.71763    90.00000   360.00000     4.67587
    12.90000    90.00000   360.00000     4.71762    90.00000   360.00000     4.67585
    13.00000    90.00000   360.00000     4.71760    90.00000   360.00000     4.67583
    13.10000    90.00000   360.00000     4.71758    90.00000   360.00000     4.67581
    13.20000    90.00000   360.00000     4.71756    90.00000   360.00000     4.67579
    13.30000    90.00000   360.00000     4.71755    90.00000   360.00000     4.67577
    13.40000    90.00000   360.00000     4.71753    90.00000   360.00000     4.67575
    13.50000    90.00000   360.00000     4.71751    90.00000   360.00000     4.67572
    13.60000    90.00000   360.00000     4.71749    90.00000   360.00000     4.67570
    13.70000    90.00000   360.00000     4.71748    90.00000   360.00000     4.67568
    13.80000    90.00000   360.00000     4.71746    90.00000   360.00000     4.67566
    13.90000    90.00000   360.00000     4.71744    90.00000   360.00000     4.67564
    14.00000    90.00000   360.00000     4.71742    90.00000   360.00000     4.67562
    14.10000    90.00000   360.00000     4.71741    90.00000   360.00000     4.67560
    14.20000    90.00000   360.00000     4.71739    90.00000   360.00000     4.67558
    14.30000    90.00000   360.00000     4.71737    90.00000   360.00000     4.67556
    14.40000    90.00000   360.00000     4.71735    90.00000   360.00000     4.67554
    14.50000    90.00000   360.00000     4.71734    90.00000   360.00000     4.67552
    14.60000    90.00000   360.00000     4.71732    90.00000   360.00000     4.67550
    14.70000    90.00000   360.00000     4.71730    90.00000   360.00000     4.67548
    14.80000    90.00000   360.00000     4.71728    90.00000   360.00000     4.67546
    14.90000    90.00000   360.00000     4.71727    90.00000   360.00000     4.67544
    15.00000    90.00000   360.00000     4.71725    90.00000   360.00000     4.67542
    15.10000    90.00000   360.00000     4.71723    90.00000   360.00000     4.67539
    15.20000    90.00000   360.00000     4.71721    90.00000   360.00000     4.67537
    15.30000    90.00000   360.00000     4.71720    90.00000   360.00000     4.67535
    15.40000    90.00000   360.00000     4.71718    90.00000   360.00000     4.67533
    15.50000    90.00000   360.00000     4.71716    90.00000   360.00000     4.67531
    15.60000    90.00000   360.00000     4.71714    90.00000   360.00000     4.67529
    15.70000    90.00000   360.00000     4.71713    90.00000   360.00000     4.67527
    15.80000    90.00000   360.00000     4.71711    90.00000   360.00000     4.67525
    15.90000    90.00000   360.00000     4.71709    90.00000   360.00000     4.67523
    16.00000    90.00000   360.00000     4.71707    90.00000   360.00000     4.67521
    16.10000    90.00000   360.00000     4.71706    90.00000   360.00000     4.67519
    16.20000    90.00000   360.00000     4.71704    90.00000   360.00000     4.67517
    16.30000    90.00000   360.00000     4.71702    90.00000   360.00000     4.67515
    16.40000    90.00000   360.00000     4.71700    90.00000   360.00000     4.67513
    16.50000    90.00000   360.00000     4.71698    90.00000   360.00000     4.67511
    16.60000    90.00000   360.00000     4.71697    90.00000   360.00000     4.67508
    16.70000    90.00000   360.00000     4.71695    90.00000   360.00000     4.67506
    16.80000    90.00000   360.00000     4.71693    90.00000   360.00000     4.67504
    16.90000    90.00000   360.00000     4.71691    90.00000   360.00000     4.67502
    17.00000    90.00000   360.00000     4.71690    90.00000   360.00000     4.67500
    17.10000    90.00000   360.00000     4.71688    90.00000   360.00000     4.67498
    17.20000    90.00000   360.00000     4.71686    90.00000   360.00000     4.67496
    17.30000    90.00000   360.00000     4.71684    90.00000   360.00000     4.67494
    17.40000    90.00000   360.00000     4.71683    90.00000   360.00000     4.67492
    17.50000    90.00000   360.00000     4.71681    90.00000   360.00000     4.67490
    17.60000    90.00000   360.00000     4.71679    90.00000   360.00000     4.67488
    17.70000    90.00000   360.00000     4.71677    90.00000   360.00000     4.67486
    17.80000    90.00000   360.00000     4.71676    90.00000   360.00000     4.67484
    17.90000    90.00000   360.00000     4.71674    90.00000   360.00000     4.67482
    18.00000    90.00000   360.00000     4.71672    90.00000   360.00000     4.67479
    18.10000    90.00000   360.00000     4.71670    90.00000   360.00000     4.67477
    18.20000    90.00000   360.00000     4.71669    90.00000   360.00000     4.67475
    18.30000    90.00000   360.00000     4.71667    90.00000   360.00000     4.67473
    18.40000    90.00000   360.00000     4.71665    90.00000   360.00000     4.67471
    18.50000    90.00000   360.00000     4.71663    90.00000   360.00000     4.67469
    18.60000    90.00000   360.00000     4.71662    90.00000   360.00000     4.67467
    18.70000    90.00000   360.00000     4.71660    90.00000   360.00000     4.67465
    18.80000    90.00000   360.00000     4.71658    90.00000   360.00000     4.67463
    18.90000    90.00000   360.00000     4.71656    90.00000   360.00000     4.67461
    19.00000    90.00000   360.00000     4.71655    90.00000   360.00000     4.67459
    19.10000    90.00000   360.00000     4.71653    90.00000   360.00000     4.67457
    19.20000    90.00000   360.00000     4.71651    90.00000   360.00000     4.67455
    19.30000    90.00000   360.00000     4.71649    90.00000   360.00000     4.67452
    19.40000    90.00000   360.00000     4.71647    90.00000   360.00000     4.67450
    19.50000    90.00000   360.00000     4.71646    90.00000   360.00000     4.67448
    19.60000    90.00000   360.00000     4.71644    90.00000   360.00000     4.67446
    19.70000    90.00000   360.00000     4.71642    90.00000   360.00000     4.67444
    19.80000    90.00000   360.00000     4.71640    90.00000   360.00000     4.67442
    19.90000    90.00000   360.00000     4.71639    90.00000   360.00000     4.67440
    20.00000    90.00000   360.00000     4.71637    90.00000   360.00000     4.67438
    20.10000    90.00000   360.00000     4.71635    90.00000   360.00000     4.67436
    20.20000    90.00000   360.00000     4.71633    90.00000   360.00000     4.67434
    20.30000    90.00000   360.00000     4.71632    90.00000   360.00000     4.67432
    20.40000    90.00000   360.00000     4.71630    90.00000   360.00000     4.67430
    20.50000    90.00000   360.00000     4.71628    90.00000   360.00000     4.67427
    20.60000    90.00000   360.00000     4.71626    90.00000   360.00000     4.67425
    20.70000    90.00000   360.00000     4.71625    90.00000   360.00000     4.67423
    20.80000    90.00000   360.00000     4.71623    90.00000   360.00000     4.67421
    20.90000    90.00000   360.00000     4.71621    90.00000   360.00000     4.67419
    21.00000    90.00000   360.00000     4.71619    90.00000   360.00000     4.67417
    21.10000    90.00000   360.00000     4.71617    90.00000   360.00000     4.67415
    21.20000    90.00000   360.00000     4.71616    90.00000   360.00000     4.67413
    21.30000    90.00000   360.00000     4.71614    90.00000   360.00000     4.67411
    21.40000    90.00000   360.00000     4.71612    90.00000   360.00000     4.67409
    21.50000    90.00000   360.00000     4.71610    90.00000   360.00000     4.67407
    21.60000    90.00000   360.00000     4.71609    90.00000   360.00000     4.67405
    21.70000    90.00000   360.00000     4.71607    90.00000   360.00000     4.67402
    21.80000    90.00000   360.00000     4.71605    90.00000   360.00000     4.67400
    21.90000    90.00000   360.00000     4.71603    90.00000   360.00000     4.67398
    22.00000    90.00000   360.00000     4.71602    90.00000   360.00000     4.67396
    22.10000    90.00000   360.00000     4.71600    90.00000   360.00000     4.67394
    22.20000    90.00000   360.00000     4.71598    90.00000   360.00000     4.67392
    22.30000    90.00000   360.00000     4.71596    90.00000   360.00000     4.67390
    22.40000    90.00000   360.00000     4.71594    90.00000   360.00000     4.67388
    22.50000    90.00000   360.00000     4.71593    90.00000   360.00000     4.67386
    22.60000    90.00000   360.00000     4.71591    90.00000   360.00000     4.67384
    22.70000    90.00000   360.00000     4.71589    90.00000   360.00000     4.67382
    22.80000    90.00000   360.00000     4.71587    90.00000   360.00000     4.67379
    22.90000    90.00000   360.00000     4.71586    90.00000   360.00000     4.67377
    23.00000    90.00000   360.00000     4.71584    90.00000   360.00000     4.67375
    23.10000    90.00000   360.00000     4.71582    90.00000   360.00000     4.67373
    23.20000    90.00000   360.00000     4.71580    90.00000   360.00000     4.67371
    23.30000    90.00000   360.00000     4.71579    90.00000   360.00000     4.67369
    23.40000    90.00000   360.00000     4.71577    90.00000   360.00000     4.67367
    23.50000    90.00000   360.00000     4.71575    90.00000   360.00000     4.67365
    23.60000    90.00000   360.00000     4.71573    90.00000   360.00000     4.67363
    23.70000    90.00000   360.00000     4.71571    90.00000   360.00000     4.67361
    23.80000    90.00000   360.00000     4.71570    90.00000   360.00000     4.67359
    23.90000    90.00000   360.00000     4.71568    90.00000   360.00000     4.67356
    24.00000    90.00000   360.00000     4.71566    90.00000   360.00000     4.67354
    24.10000    90.00000   360.00000     4.71564    90.00000   360.00000     4.67352
    24.20000    90.00000   360.00000     4.71563    90.00000   360.00000     4.67350
    24.30000    90.00000   360.00000     4.71561    90.00000   360.00000     4.67348
    24.40000    90.00000   360.00000     4.71559    90.00000   360.00000     4.67346
    24.50000    90.00000   360.00000     4.71557    90.00000   360.00000     4.67344
    24.60000    90.00000   360.00000     4.71556    90.00000   360.00000     4.67342
    24.70000    90.00000   360.00000     4.71554    90.00000   360.00000     4.67340
    24.80000    90.00000   360.00000     4.71552    90.00000   360.00000     4.67338
    24.90000    90.00000   360.00000     4.71550    90.00000   360.00000     4.67336
    25.00000    90.00000   360.00000     4.71548    90.00000   360.00000     4.67333
    25.10000    90.00000   360.00000     4.71547    90.00000   360.00000     4.67331
    25.20000    90.00000   360.00000     4.71545    90.00000   360.00000     4.67329
    25.30000    90.00000   360.00000     4.71543    90.00000   360.00000     4.67327
    25.40000    90.00000   360.00000     4.71541    90.00000   360.00000     4.67325
    25.50000    90.00000   360.00000     4.71540    90.00000   360.00000     4.67323
    25.60000    90.00000   360.00000     4.71538    90.00000   360.00000     4.67321
    25.70000    90.00000   360.00000     4.71536    90.00000   360.00000     4.67319
    25.80000    90.00000   360.00000     4.71534    90.00000   360.00000     4.67317
    25.90000    90.00000   360.00000     4.71532    90.00000   360.00000     4.67315
    26.00000    90.00000   360.00000     4.71531    90.00000   360.00000     4.67312
    26.10000    90.00000   360.00000     4.71529    90.00000   360.00000     4.67310
    26.20000    90.00000   360.00000     4.71527    90.00000   360.00000     4.67308
    26.30000    90.00000   360.00000     4.71525    90.00000   360.00000     4.67306
    26.40000    90.00000   360.00000     4.71524    90.00000   360.00000     4.67304
    26.50000    90.00000   360.00000     4.71522    90.00000   360.00000     4.67302
    26.60000    90.00000   360.00000     4.71520    90.00000   360.00000     4.67300
    26.70000    90.00000   360.00000     4.71518    90.00000   360.00000     4.67298
    26.80000    90.00000   360.00000     4.71516    90.00000   360.00000     4.67296
    26.90000    90.00000   360.00000     4.71515    90.00000   360.00000     4.67294
    27.00000    90.00000   360.00000     4.71513    90.00000   360.00000     4.67291
    27.10000    90.00000   360.00000     4.71511    90.00000   360.00000     4.67289
    27.20000    90.00000   360.00000     4.71509    90.00000   360.00000     4.67287
    27.30000    90.00000   360.00000     4.71508    90.00000   360.00000     4.67285
    27.40000    90.00000   360.00000     4.71506    90.00000   360.00000     4.67283
    27.50000    90.00000   360.00000     4.71504    90.00000   360.00000     4.67281
    27.60000    90.00000   360.00000     4.71502    90.00000   360.00000     4.67279
    27.70000    90.00000   360.00000     4.71500    90.00000   360.00000     4.67277
    27.80000    90.00000   360.00000     4.71499    90.00000   360.00000     4.67275
    27.90000    90.00000   360.00000     4.71497    90.00000   360.00000     4.67272
    28.00000    90.00000   360.00000     4.71495    90.00000   360.00000     4.67270
    28.10000    90.00000   360.00000     4.71493    90.00000   360.00000     4.67268
    28.20000    90.00000   360.00000     4.71492    90.00000   360.00000     4.67266
    28.30000    90.00000   360.00000     4.71490    90.00000   360.00000     4.67264
    28.40000    90.00000   360.00000     4.71488    90.00000   360.00000     4.67262
    28.50000    90.00000   360.00000     4.71486    90.00000   360.00000     4.67260
    28.60000    90.00000   360.00000     4.71484    90.00000   360.00000     4.67258
    28.70000    90.00000   360.00000     4.71483    90.00000   360.00000     4.67256
    28.80000    90.00000   360.00000     4.71481    90.00000   360.00000     4.67253
    28.90000    90.00000   360.00000     4.71479    90.00000   360.00000     4.67251
    29.00000    90.00000   360.00000     4.71477    90.00000   360.00000     4.67249
    29.10000    90.00000   360.00000     4.71475    90.00000   360.00000     4.67247
    29.20000    90.00000   360.00000     4.71474    90.00000   360.00000     4.67245
    29.30000    90.00000   360.00000     4.71472    90.00000   360.00000     4.67243
    29.40000    90.00000   360.00000     4.71470    90.00000   360.00000     4.67241
    29.50000    90.00000   360.00000     4.71468    90.00000   360.00000     4.67239
    29.60000    90.00000   360.00000     4.71467    90.00000   360.00000     4.67237
    29.70000    90.00000   360.00000     4.71465    90.00000   360.00000     4.67234
    29.80000    90.00000   360.00000     4.71463    90.00000   360.00000     4.67232
    29.90000    90.00000   360.00000     4.71461    90.00000   360.00000     4.67230
    30.00000    90.00000   360.00000     4.71459    90.00000   360.00000     4.67228
    30.10000    90.00000   360.00000     4.71458    90.00000   360.00000     4.67226
    30.20000    90.00000   360.00000     4.71456    90.00000   360.00000     4.67224
    30.30000    90.00000   360.00000     4.71454    90.00000   360.00000     4.67222
    30.40000    90.00000   360.00000     4.71452    90.00000   360.00000     4.67220
    30.50000    90.00000   360.00000     4.71451    90.00000   360.00000     4.67218
    30.60000    90.00000   360.00000     4.71449    90.00000   360.00000     4.67215
    30.70000    90.00000   360.00000     4.71447    90.00000   360.00000     4.67213
    30.80000    90.00000   360.00000     4.71445    90.00000   360.00000     4.67211
    30.90000    90.00000   360.00000     4.71443    90.00000   360.00000     4.67209
    31.00000    90.00000   360.00000     4.71442    90.00000   360.00000     4.67207
    31.10000    90.00000   360.00000     4.71440    90.00000   360.00000     4.67205
    31.20000    90.00000   360.00000     4.71438    90.00000   360.00000     4.67203
    31.30000    90.00000   360.00000     4.71436    90.00000   360.00000     4.67201
    31.40000    90.00000   360.00000     4.71434    90.00000   360.00000     4.67199
    31.50000    90.00000   360.00000     4.71433    90.00000   360.00000     4.67196
    31.60000    90.00000   360.00000     4.71431    90.00000   360.00000     4.67194
    31.70000    90.00000   360.00000     4.71429    90.00000   360.00000     4.67192
    31.80000    90.00000   360.00000     4.71427    90.00000   360.00000     4.67190
    31.90000    90.00000   360.00000     4.71425    90.00000   360.00000     4.67188
    32.00000    90.00000   360.00000     4.71424    90.00000   360.00000     4.67186
    32.10000    90.00000   360.00000     4.71422    90.00000   360.00000     4.67184
    32.20000    90.00000   360.00000     4.71420    90.00000   360.00000     4.67182
    32.30000    90.00000   360.00000     4.71418    90.00000   360.00000     4.67179
    32.40000    90.00000   360.00000     4.71417    90.00000   360.00000     4.67177
    32.50000    90.00000   360.00000     4.71415    90.00000   360.00000     4.67175
    32.60000    90.00000   360.00000     4.71413    90.00000   360.00000     4.67173
    32.70000    90.00000   360.00000     4.71411    90.00000   360.00000     4.67171
    32.80000    90.00000   360.00000     4.71409    90.00000   360.00000     4.67169
    32.90000    90.00000   360.00000     4.71408    90.00000   360.00000     4.67167
    33.00000    90.00000   360.00000     4.71406    90.00000   360.00000     4.67165
    33.10000    90.00000   360.00000     4.71404    90.00000   360.00000     4.67162
    33.20000    90.00000   360.00000     4.71402    90.00000   360.00000     4.67160
    33.30000    90.00000   360.00000     4.71400    90.00000   360.00000     4.67158
    33.40000    90.00000   360.00000     4.71399    90.00000   360.00000     4.67156
    33.50000    90.00000   360.00000     4.71397    90.00000   360.00000     4.67154
    33.60000    90.00000   360.00000     4.71395    90.00000   360.00000     4.67152
    33.70000    90.00000   360.00000     4.71393    90.00000   360.00000     4.67150
    33.80000    90.00000   360.00000     4.71391    90.00000   360.00000     4.67148
    33.90000    90.00000   360.00000     4.71390    90.00000   360.00000     4.67145
    34.00000    90.00000   360.00000     4.71388    90.00000   360.00000     4.67143
    34.10000    90.00000   360.00000     4.71386    90.00000   360.00000     4.67141
    34.20000    90.00000   360.00000     4.71384    90.00000   360.00000     4.67139
    34.30000    90.00000   360.00000     4.71382    90.00000   360.00000     4.67137
    34.40000    90.00000   360.00000     4.71381    90.00000   360.00000     4.67135
    34.50000    90.00000   360.00000     4.71379    90.00000   360.00000     4.67133
    34.60000    90.00000   360.00000     4.71377    90.00000   360.00000     4.67131
    34.70000    90.00000   360.00000     4.71375    90.00000   360.00000     4.67128
    34.80000    90.00000   360.00000     4.71374    90.00000   360.00000     4.67126
    34.90000    90.00000   360.00000     4.71372    90.00000   360.00000     4.67124
    35.00000    90.00000   360.00000     4.71370    90.00000   360.00000     4.67122
    35.10000    90.00000   360.00000     4.71368    90.00000   360.00000     4.67120
    35.20000    90.00000   360.00000     4.71366    90.00000   360.00000     4.67118
    35.30000    90.00000   360.00000     4.71365    90.00000   360.00000     4.67116
    35.40000    90.00000   360.00000     4.71363    90.00000   360.00000     4.67113
    35.50000    90.00000   360.00000     4.71361    90.00000   360.00000     4.67111
    35.60000    90.00000   360.00000     4.71359    90.00000   360.00000     4.67109
    35.70000    90.00000   360.00000     4.71357    90.00000   360.00000     4.67107
    35.80000    90.00000   360.00000     4.71356    90.00000   360.00000     4.67105
    35.90000    90.00000   360.00000     4.71354    90.00000   360.00000     4.67103
    36.00000    90.00000   360.00000     4.71352    90.00000   360.00000     4.67101
    36.10000    90.00000   360.00000     4.71350    90.00000   360.00000     4.67099
    36.20000    90.00000   360.00000     4.71348    90.00000   360.00000     4.67096
    36.30000    90.00000   360.00000     4.71347    90.00000   360.00000     4.67094
    36.40000    90.00000   360.00000     4.71345    90.00000   360.00000     4.67092
    36.50000    90.00000   360.00000     4.71343    90.00000   360.00000     4.67090
    36.60000    90.00000   360.00000     4.71341    90.00000   360.00000     4.67088
    36.70000    90.00000   360.00000     4.71339    90.00000   360.00000     4.67086
    36.80000    90.00000   360.00000     4.71338    90.00000   360.00000     4.67084
    36.90000    90.00000   360.00000     4.71336    90.00000   360.00000     4.67081
    37.00000    90.00000   360.00000     4.71334    90.00000   360.00000     4.67079
    37.10000    90.00000   360.00000     4.71332    90.00000   360.00000     4.67077
    37.20000    90.00000   360.00000     4.71330    90.00000   360.00000     4.67075
    37.30000    90.00000   360.00000     4.71329    90.00000   360.00000     4.67073
    37.40000    90.00000   360.00000     4.71327    90.00000   360.00000     4.67071
    37.50000    90.00000   360.00000     4.71325    90.00000   360.00000     4.67069
    37.60000    90.00000   360.00000     4.71323    90.00000   360.00000     4.67067
    37.70000    90.00000   360.00000     4.71321    90.00000   360.00000     4.67064
    37.80000    90.00000   360.00000     4.71320    90.00000   360.00000     4.67062
    37.90000    90.00000   360.00000     4.71318    90.00000   360.00000     4.67060
    38.00000    90.00000   360.00000     4.71316    90.00000   360.00000     4.67058
    38.10000    90.00000   360.00000     4.71314    90.00000   360.00000     4.67056
    38.20000    90.00000   360.00000     4.71312    90.00000   360.00000     4.67054
    38.30000    90.00000   360.00000     4.71311    90.00000   360.00000     4.67052
    38.40000    90.00000   360.00000     4.71309    90.00000   360.00000     4.67049
    38.50000    90.00000   360.00000     4.71307    90.00000   360.00000     4.67047
    38.60000    90.00000   360.00000     4.71305    90.00000   360.00000     4.67045
    38.70000    90.00000   360.00000     4.71303    90.00000   360.00000     4.67043
    38.80000    90.00000   360.00000     4.71302    90.00000   360.00000     4.67041
    38.90000    90.00000   360.00000     4.71300    90.00000   360.00000     4.67039
    39.00000    90.00000   360.00000     4.71298    90.00000   360.00000     4.67037
    39.10000    90.00000   360.00000     4.71296    90.00000   360.00000     4.67034
    39.20000    90.00000   360.00000     4.71294    90.00000   360.00000     4.67032
    39.30000    90.00000   360.00000     4.71292    90.00000   360.00000     4.67030
    39.40000    90.00000   360.00000     4.71291    90.00000   360.00000     4.67028
    39.50000    90.00000   360.00000     4.71289    90.00000   360.00000     4.67026
    39.60000    90.00000   360.00000     4.71287    90.00000   360.00000     4.67024
    39.70000    90.00000   360.00000     4.71285    90.00000   360.00000     4.67022
    39.80000    90.00000   360.00000     4.71283    90.00000   360.00000     4.67019
    39.90000    90.00000   360.00000     4.71282    90.00000   360.00000     4.67017
    40.00000    90.00000   360.00000     4.71280    90.00000   360.00000     4.67015
