 # applied field (T), theta (degree), phi (degree), abs for RE 1-2
     0.00000   180.00000   360.00000     4.44192     0.00000     0.00000     0.00000
     0.10000   179.82368   180.00000     4.44192     0.00000     0.00000     0.00000
     0.20000   179.64736   180.00000     4.44192     0.00000     0.00000     0.00000
     0.30000   179.47103   180.00000     4.44191     0.00000     0.00000     0.00000
     0.40000   179.29469   180.00000     4.44190     0.00000     0.00000     0.00000
     0.50000   179.11835   180.00000     4.44189     0.00000     0.00000     0.00000
     0.60000   178.94199   180.00000     4.44187     0.00000     0.00000     0.00000
     0.70000   178.76561   180.00000     4.44185     0.00000     0.00000     0.00000
     0.80000   178.58922   180.00000     4.44183     0.00000     0.00000     0.00000
     0.90000   178.41280   180.00000     4.44180     0.00000     0.00000     0.00000
     1.00000   178.23636   180.00000     4.44178     0.00000     0.00000     0.00000
     1.10000   178.05989   180.00000     4.44175     0.00000     0.00000     0.00000
     1.20000   177.88340   180.00000     4.44171     0.00000     0.00000     0.00000
     1.30000   177.70687   180.00000     4.44168     0.00000     0.00000     0.00000
     1.40000   177.53030   180.00000     4.44164     0.00000     0.00000     0.00000
     1.50000   177.35370   180.00000     4.44160     0.00000     0.00000     0.00000
     1.60000   177.17706   180.00000     4.44155     0.00000     0.00000     0.00000
     1.70000   177.00038   180.00000     4.44150     0.00000     0.00000     0.00000
     1.80000   176.82364   180.00000     4.44145     0.00000     0.00000     0.00000
     1.90000   176.64687   180.00000     4.44140     0.00000     0.00000     0.00000
     2.00000   176.51430   180.00000     4.44135     0.00000     0.00000     0.00000
     2.10000   176.33743   180.00000     4.44130     0.00000     0.00000     0.00000
     2.20000   176.16050   180.00000     4.44123     0.00000     0.00000     0.00000
     2.30000   175.98352   180.00000     4.44117     0.00000     0.00000     0.00000
     2.40000   175.80647   180.00000     4.44110     0.00000     0.00000     0.00000
     2.50000   175.62936   180.00000     4.44103     0.00000     0.00000     0.00000
     2.60000   175.45219   180.00000     4.44096     0.00000     0.00000     0.00000
     2.70000   175.27494   180.00000     4.44088     0.00000     0.00000     0.00000
     2.80000   175.09763   180.00000     4.44080     0.00000     0.00000     0.00000
     2.90000   174.92024   180.00000     4.44072     0.00000     0.00000     0.00000
     3.00000   174.74277   180.00000     4.44064     0.00000     0.00000     0.00000
     3.10000   174.56522   180.00000     4.44055     0.00000     0.00000     0.00000
     3.20000   174.38759   180.00000     4.44046     0.00000     0.00000     0.00000
     3.30000   174.20988   180.00000     4.44037     0.00000     0.00000     0.00000
     3.40000   174.03207   180.00000     4.44027     0.00000     0.00000     0.00000
     3.50000   173.85418   180.00000     4.44017     0.00000     0.00000     0.00000
     3.60000   173.67619   180.00000     4.44007     0.00000     0.00000     0.00000
     3.70000   173.49811   180.00000     4.43996     0.00000     0.00000     0.00000
     3.80000   173.31992   180.00000     4.43986     0.00000     0.00000     0.00000
     3.90000   173.14164   180.00000     4.43975     0.00000     0.00000     0.00000
     4.00000   172.96325   180.00000     4.43963     0.00000     0.00000     0.00000
     4.10000   172.78476   180.00000     4.43952     0.00000     0.00000     0.00000
     4.20000   172.60615   180.00000     4.43940     0.00000     0.00000     0.00000
     4.30000   172.42744   180.00000     4.43928     0.00000     0.00000     0.00000
     4.40000   172.24860   180.00000     4.43915     0.00000     0.00000     0.00000
     4.50000   172.06965   180.00000     4.43903     0.00000     0.00000     0.00000
     4.60000   171.89058   180.00000     4.43890     0.00000     0.00000     0.00000
     4.70000   171.71139   180.00000     4.43876     0.00000     0.00000     0.00000
     4.80000   171.53207   180.00000     4.43863     0.00000     0.00000     0.00000
     4.90000   171.35262   180.00000     4.43849     0.00000     0.00000     0.00000
     5.00000   171.17304   180.00000     4.43835     0.00000     0.00000     0.00000
     5.10000   170.99333   180.00000     4.43820     0.00000     0.00000     0.00000
     5.20000   170.81348   180.00000     4.43806     0.00000     0.00000     0.00000
     5.30000   170.63349   180.00000     4.43791     0.00000     0.00000     0.00000
     5.40000   170.45336   180.00000     4.43776     0.00000     0.00000     0.00000
     5.50000   170.27309   180.00000     4.43760     0.00000     0.00000     0.00000
     5.60000   170.09266   180.00000     4.43744     0.00000     0.00000     0.00000
     5.70000   169.91209   180.00000     4.43728     0.00000     0.00000     0.00000
     5.80000   169.73136   180.00000     4.43712     0.00000     0.00000     0.00000
     5.90000   169.55048   180.00000     4.43695     0.00000     0.00000     0.00000
     6.00000   169.36944   180.00000     4.43679     0.00000     0.00000     0.00000
     6.10000   169.18824   180.00000     4.43661     0.00000     0.00000     0.00000
     6.20000   169.00687   180.00000     4.43644     0.00000     0.00000     0.00000
     6.30000   168.82534   180.00000     4.43626     0.00000     0.00000     0.00000
     6.40000   168.64364   180.00000     4.43609     0.00000     0.00000     0.00000
     6.50000   168.46177   180.00000     4.43590     0.00000     0.00000     0.00000
     6.60000   168.23416   180.00000     4.43568     0.00000     0.00000     0.00000
     6.70000   168.05189   180.00000     4.43549     0.00000     0.00000     0.00000
     6.80000   167.86944   180.00000     4.43530     0.00000     0.00000     0.00000
     6.90000   167.68681   180.00000     4.43510     0.00000     0.00000     0.00000
     7.00000   167.50399   180.00000     4.43491     0.00000     0.00000     0.00000
     7.10000   167.32098   180.00000     4.43471     0.00000     0.00000     0.00000
     7.20000   167.13778   180.00000     4.43451     0.00000     0.00000     0.00000
     7.30000   166.95439   180.00000     4.43431     0.00000     0.00000     0.00000
     7.40000   166.77080   180.00000     4.43410     0.00000     0.00000     0.00000
     7.50000   166.58701   180.00000     4.43389     0.00000     0.00000     0.00000
     7.60000   166.40301   180.00000     4.43368     0.00000     0.00000     0.00000
     7.70000   166.21882   180.00000     4.43347     0.00000     0.00000     0.00000
     7.80000   166.03441   180.00000     4.43325     0.00000     0.00000     0.00000
     7.90000   165.84979   180.00000     4.43303     0.00000     0.00000     0.00000
     8.00000   165.66496   180.00000     4.43281     0.00000     0.00000     0.00000
     8.10000   165.47992   180.00000     4.43259     0.00000     0.00000     0.00000
     8.20000   165.29465   180.00000     4.43236     0.00000     0.00000     0.00000
     8.30000   165.06276   180.00000     4.43208     0.00000     0.00000     0.00000
     8.40000   164.87700   180.00000     4.43185     0.00000     0.00000     0.00000
     8.50000   164.69100   180.00000     4.43162     0.00000     0.00000     0.00000
     8.60000   164.50478   180.00000     4.43138     0.00000     0.00000     0.00000
     8.70000   164.31833   180.00000     4.43114     0.00000     0.00000     0.00000
     8.80000   164.13164   180.00000     4.43090     0.00000     0.00000     0.00000
     8.90000   163.94471   180.00000     4.43066     0.00000     0.00000     0.00000
     9.00000   163.75754   180.00000     4.43041     0.00000     0.00000     0.00000
     9.10000   163.57012   180.00000     4.43016     0.00000     0.00000     0.00000
     9.20000   163.38246   180.00000     4.42991     0.00000     0.00000     0.00000
     9.30000   163.19456   180.00000     4.42966     0.00000     0.00000     0.00000
     9.40000   162.95933   180.00000     4.42934     0.00000     0.00000     0.00000
     9.50000   162.77086   180.00000     4.42908     0.00000     0.00000     0.00000
     9.60000   162.58213   180.00000     4.42882     0.00000     0.00000     0.00000
     9.70000   162.39313   180.00000     4.42856     0.00000     0.00000     0.00000
     9.80000   162.20388   180.00000     4.42830     0.00000     0.00000     0.00000
     9.90000   162.01435   180.00000     4.42803     0.00000     0.00000     0.00000
    10.00000   161.82456   180.00000     4.42776     0.00000     0.00000     0.00000
    10.10000   161.63450   180.00000     4.42749     0.00000     0.00000     0.00000
    10.20000   161.39657   180.00000     4.42715     0.00000     0.00000     0.00000
    10.30000   161.20590   180.00000     4.42687     0.00000     0.00000     0.00000
    10.40000   161.01494   180.00000     4.42660     0.00000     0.00000     0.00000
    10.50000   160.82370   180.00000     4.42631     0.00000     0.00000     0.00000
    10.60000   160.63218   180.00000     4.42603     0.00000     0.00000     0.00000
    10.70000   160.44037   180.00000     4.42575     0.00000     0.00000     0.00000
    10.80000   160.20024   180.00000     4.42539     0.00000     0.00000     0.00000
    10.90000   160.00778   180.00000     4.42510     0.00000     0.00000     0.00000
    11.00000   159.81502   180.00000     4.42481     0.00000     0.00000     0.00000
    11.10000   159.62197   180.00000     4.42452     0.00000     0.00000     0.00000
    11.20000   159.42862   180.00000     4.42422     0.00000     0.00000     0.00000
    11.30000   159.18654   180.00000     4.42385     0.00000     0.00000     0.00000
    11.40000   158.99250   180.00000     4.42356     0.00000     0.00000     0.00000
    11.50000   158.79816   180.00000     4.42325     0.00000     0.00000     0.00000
    11.60000   158.60350   180.00000     4.42295     0.00000     0.00000     0.00000
    11.70000   158.40853   180.00000     4.42264     0.00000     0.00000     0.00000
    11.80000   158.16443   180.00000     4.42226     0.00000     0.00000     0.00000
    11.90000   157.96874   180.00000     4.42195     0.00000     0.00000     0.00000
    12.00000   157.77274   180.00000     4.42164     0.00000     0.00000     0.00000
    12.10000   157.57641   180.00000     4.42133     0.00000     0.00000     0.00000
    12.20000   157.33060   180.00000     4.42094     0.00000     0.00000     0.00000
    12.30000   157.13354   180.00000     4.42062     0.00000     0.00000     0.00000
    12.40000   156.93614   180.00000     4.42030     0.00000     0.00000     0.00000
    12.50000   156.73841   180.00000     4.41998     0.00000     0.00000     0.00000
    12.60000   156.49085   180.00000     4.41959     0.00000     0.00000     0.00000
    12.70000   156.29236   180.00000     4.41926     0.00000     0.00000     0.00000
    12.80000   156.09353   180.00000     4.41893     0.00000     0.00000     0.00000
    12.90000   155.89435   180.00000     4.41861     0.00000     0.00000     0.00000
    13.00000   155.64497   180.00000     4.41820     0.00000     0.00000     0.00000
    13.10000   155.44502   180.00000     4.41787     0.00000     0.00000     0.00000
    13.20000   155.24471   180.00000     4.41754     0.00000     0.00000     0.00000
    13.30000   154.99391   180.00000     4.41712     0.00000     0.00000     0.00000
    13.40000   154.79281   180.00000     4.41679     0.00000     0.00000     0.00000
    13.50000   154.59135   180.00000     4.41645     0.00000     0.00000     0.00000
    13.60000   154.33909   180.00000     4.41603     0.00000     0.00000     0.00000
    13.70000   154.13682   180.00000     4.41569     0.00000     0.00000     0.00000
    13.80000   153.93418   180.00000     4.41535     0.00000     0.00000     0.00000
    13.90000   153.68045   180.00000     4.41493     0.00000     0.00000     0.00000
    14.00000   153.47698   180.00000     4.41458     0.00000     0.00000     0.00000
    14.10000   153.27313   180.00000     4.41424     0.00000     0.00000     0.00000
    14.20000   153.01790   180.00000     4.41381     0.00000     0.00000     0.00000
    14.30000   152.81321   180.00000     4.41346     0.00000     0.00000     0.00000
    14.40000   152.55691   180.00000     4.41303     0.00000     0.00000     0.00000
    14.50000   152.35137   180.00000     4.41267     0.00000     0.00000     0.00000
    14.60000   152.14544   180.00000     4.41232     0.00000     0.00000     0.00000
    14.70000   151.88759   180.00000     4.41188     0.00000     0.00000     0.00000
    14.80000   151.68080   180.00000     4.41153     0.00000     0.00000     0.00000
    14.90000   151.42186   180.00000     4.41109     0.00000     0.00000     0.00000
    15.00000   151.21418   180.00000     4.41073     0.00000     0.00000     0.00000
    15.10000   150.95415   180.00000     4.41029     0.00000     0.00000     0.00000
    15.20000   150.74558   180.00000     4.40993     0.00000     0.00000     0.00000
    15.30000   150.48443   180.00000     4.40949     0.00000     0.00000     0.00000
    15.40000   150.27497   180.00000     4.40913     0.00000     0.00000     0.00000
    15.50000   150.01269   180.00000     4.40868     0.00000     0.00000     0.00000
    15.60000   149.80232   180.00000     4.40832     0.00000     0.00000     0.00000
    15.70000   149.53891   180.00000     4.40787     0.00000     0.00000     0.00000
    15.80000   149.32762   180.00000     4.40750     0.00000     0.00000     0.00000
    15.90000   149.06307   180.00000     4.40705     0.00000     0.00000     0.00000
    16.00000   148.85086   180.00000     4.40668     0.00000     0.00000     0.00000
    16.10000   148.58514   180.00000     4.40623     0.00000     0.00000     0.00000
    16.20000   148.37200   180.00000     4.40586     0.00000     0.00000     0.00000
    16.30000   148.10512   180.00000     4.40541     0.00000     0.00000     0.00000
    16.40000   147.83759   180.00000     4.40496     0.00000     0.00000     0.00000
    16.50000   147.62299   180.00000     4.40459     0.00000     0.00000     0.00000
    16.60000   147.35428   180.00000     4.40413     0.00000     0.00000     0.00000
    16.70000   147.13872   180.00000     4.40376     0.00000     0.00000     0.00000
    16.80000   146.86882   180.00000     4.40330     0.00000     0.00000     0.00000
    16.90000   146.59825   180.00000     4.40284     0.00000     0.00000     0.00000
    17.00000   146.38120   180.00000     4.40247     0.00000     0.00000     0.00000
    17.10000   146.10944   180.00000     4.40201     0.00000     0.00000     0.00000
    17.20000   145.83700   180.00000     4.40155     0.00000     0.00000     0.00000
    17.30000   145.56389   180.00000     4.40110     0.00000     0.00000     0.00000
    17.40000   145.34479   180.00000     4.40072     0.00000     0.00000     0.00000
    17.50000   145.07046   180.00000     4.40026     0.00000     0.00000     0.00000
    17.60000   144.79545   180.00000     4.39980     0.00000     0.00000     0.00000
    17.70000   144.51976   180.00000     4.39934     0.00000     0.00000     0.00000
    17.80000   144.29858   180.00000     4.39897     0.00000     0.00000     0.00000
    17.90000   144.02165   180.00000     4.39851     0.00000     0.00000     0.00000
    18.00000   143.74404   180.00000     4.39805     0.00000     0.00000     0.00000
    18.10000   143.46574   180.00000     4.39759     0.00000     0.00000     0.00000
    18.20000   143.18675   180.00000     4.39713     0.00000     0.00000     0.00000
    18.30000   142.96292   180.00000     4.39676     0.00000     0.00000     0.00000
    18.40000   142.68269   180.00000     4.39630     0.00000     0.00000     0.00000
    18.50000   142.40175   180.00000     4.39584     0.00000     0.00000     0.00000
    18.60000   142.12012   180.00000     4.39538     0.00000     0.00000     0.00000
    18.70000   141.83780   180.00000     4.39493     0.00000     0.00000     0.00000
    18.80000   141.55477   180.00000     4.39447     0.00000     0.00000     0.00000
    18.90000   141.27104   180.00000     4.39401     0.00000     0.00000     0.00000
    19.00000   140.98662   180.00000     4.39356     0.00000     0.00000     0.00000
    19.10000   140.70149   180.00000     4.39310     0.00000     0.00000     0.00000
    19.20000   140.41565   180.00000     4.39265     0.00000     0.00000     0.00000
    19.30000   140.12912   180.00000     4.39220     0.00000     0.00000     0.00000
    19.40000   139.84188   180.00000     4.39174     0.00000     0.00000     0.00000
    19.50000   139.55393   180.00000     4.39129     0.00000     0.00000     0.00000
    19.60000   139.26527   180.00000     4.39084     0.00000     0.00000     0.00000
    19.70000   138.97591   180.00000     4.39039     0.00000     0.00000     0.00000
    19.80000   138.68584   180.00000     4.38994     0.00000     0.00000     0.00000
    19.90000   138.39506   180.00000     4.38950     0.00000     0.00000     0.00000
    20.00000   138.04536   180.00000     4.38897     0.00000     0.00000     0.00000
    20.10000   137.75302   180.00000     4.38852     0.00000     0.00000     0.00000
    20.20000   137.45998   180.00000     4.38808     0.00000     0.00000     0.00000
    20.30000   137.16623   180.00000     4.38763     0.00000     0.00000     0.00000
    20.40000   136.87176   180.00000     4.38719     0.00000     0.00000     0.00000
    20.50000   136.51764   180.00000     4.38667     0.00000     0.00000     0.00000
    20.60000   136.22162   180.00000     4.38623     0.00000     0.00000     0.00000
    20.70000   135.92489   180.00000     4.38580     0.00000     0.00000     0.00000
    20.80000   135.56805   180.00000     4.38528     0.00000     0.00000     0.00000
    20.90000   135.26976   180.00000     4.38485     0.00000     0.00000     0.00000
    21.00000   134.97076   180.00000     4.38442     0.00000     0.00000     0.00000
    21.10000   134.61120   180.00000     4.38391     0.00000     0.00000     0.00000
    21.20000   134.31065   180.00000     4.38348     0.00000     0.00000     0.00000
    21.30000   134.00939   180.00000     4.38305     0.00000     0.00000     0.00000
    21.40000   133.64712   180.00000     4.38255     0.00000     0.00000     0.00000
    21.50000   133.34430   180.00000     4.38213     0.00000     0.00000     0.00000
    21.60000   132.98018   180.00000     4.38163     0.00000     0.00000     0.00000
    21.70000   132.61504   180.00000     4.38113     0.00000     0.00000     0.00000
    21.80000   132.30983   180.00000     4.38072     0.00000     0.00000     0.00000
    21.90000   131.94285   180.00000     4.38023     0.00000     0.00000     0.00000
    22.00000   131.63610   180.00000     4.37981     0.00000     0.00000     0.00000
    22.10000   131.26726   180.00000     4.37933     0.00000     0.00000     0.00000
    22.20000   130.89742   180.00000     4.37885     0.00000     0.00000     0.00000
    22.30000   130.58830   180.00000     4.37844     0.00000     0.00000     0.00000
    22.40000   130.21662   180.00000     4.37796     0.00000     0.00000     0.00000
    22.50000   129.84395   180.00000     4.37749     0.00000     0.00000     0.00000
    22.60000   129.47028   180.00000     4.37702     0.00000     0.00000     0.00000
    22.70000   129.09561   180.00000     4.37655     0.00000     0.00000     0.00000
    22.80000   128.78247   180.00000     4.37616     0.00000     0.00000     0.00000
    22.90000   128.40599   180.00000     4.37569     0.00000     0.00000     0.00000
    23.00000   128.02852   180.00000     4.37523     0.00000     0.00000     0.00000
    23.10000   127.65006   180.00000     4.37478     0.00000     0.00000     0.00000
    23.20000   127.27063   180.00000     4.37432     0.00000     0.00000     0.00000
    23.30000   126.89021   180.00000     4.37387     0.00000     0.00000     0.00000
    23.40000   126.50882   180.00000     4.37343     0.00000     0.00000     0.00000
    23.50000   126.06279   180.00000     4.37292     0.00000     0.00000     0.00000
    23.60000   125.67929   180.00000     4.37248     0.00000     0.00000     0.00000
    23.70000   125.29483   180.00000     4.37204     0.00000     0.00000     0.00000
    23.80000   124.90941   180.00000     4.37160     0.00000     0.00000     0.00000
    23.90000   124.45869   180.00000     4.37111     0.00000     0.00000     0.00000
    24.00000   124.07119   180.00000     4.37068     0.00000     0.00000     0.00000
    24.10000   123.68273   180.00000     4.37026     0.00000     0.00000     0.00000
    24.20000   123.22850   180.00000     4.36978     0.00000     0.00000     0.00000
    24.30000   122.83799   180.00000     4.36936     0.00000     0.00000     0.00000
    24.40000   122.38138   180.00000     4.36889     0.00000     0.00000     0.00000
    24.50000   121.98884   180.00000     4.36848     0.00000     0.00000     0.00000
    24.60000   121.52986   180.00000     4.36801     0.00000     0.00000     0.00000
    24.70000   121.06962   180.00000     4.36755     0.00000     0.00000     0.00000
    24.80000   120.60812   180.00000     4.36709     0.00000     0.00000     0.00000
    24.90000   120.21142   180.00000     4.36670     0.00000     0.00000     0.00000
    25.00000   119.74761   180.00000     4.36625     0.00000     0.00000     0.00000
    25.10000   119.28257   180.00000     4.36580     0.00000     0.00000     0.00000
    25.20000   118.81630   180.00000     4.36536     0.00000     0.00000     0.00000
    25.30000   118.34880   180.00000     4.36493     0.00000     0.00000     0.00000
    25.40000   117.81317   180.00000     4.36444     0.00000     0.00000     0.00000
    25.50000   117.34309   180.00000     4.36402     0.00000     0.00000     0.00000
    25.60000   116.87182   180.00000     4.36360     0.00000     0.00000     0.00000
    25.70000   116.33190   180.00000     4.36313     0.00000     0.00000     0.00000
    25.80000   115.85810   180.00000     4.36272     0.00000     0.00000     0.00000
    25.90000   115.31532   180.00000     4.36227     0.00000     0.00000     0.00000
    26.00000   114.77102   180.00000     4.36182     0.00000     0.00000     0.00000
    26.10000   114.22524   180.00000     4.36137     0.00000     0.00000     0.00000
    26.20000   113.67798   180.00000     4.36094     0.00000     0.00000     0.00000
    26.30000   113.12926   180.00000     4.36051     0.00000     0.00000     0.00000
    26.40000   112.57909   180.00000     4.36008     0.00000     0.00000     0.00000
    26.50000   111.95856   180.00000     4.35962     0.00000     0.00000     0.00000
    26.60000   111.40540   180.00000     4.35921     0.00000     0.00000     0.00000
    26.70000   110.78154   180.00000     4.35876     0.00000     0.00000     0.00000
    26.80000   110.15595   180.00000     4.35833     0.00000     0.00000     0.00000
    26.90000   109.52868   180.00000     4.35790     0.00000     0.00000     0.00000
    27.00000   108.82984   180.00000     4.35744     0.00000     0.00000     0.00000
    27.10000   108.19910   180.00000     4.35703     0.00000     0.00000     0.00000
    27.20000   107.49650   180.00000     4.35659     0.00000     0.00000     0.00000
    27.30000   106.72150   180.00000     4.35613     0.00000     0.00000     0.00000
    27.40000   105.94427   180.00000     4.35568     0.00000     0.00000     0.00000
    27.50000   105.16486   180.00000     4.35525     0.00000     0.00000     0.00000
    27.60000   104.31228   180.00000     4.35481     0.00000     0.00000     0.00000
    27.70000   103.45731   180.00000     4.35438     0.00000     0.00000     0.00000
    27.80000   102.52859   180.00000     4.35394     0.00000     0.00000     0.00000
    27.90000   101.52566   180.00000     4.35350     0.00000     0.00000     0.00000
    28.00000   100.37620   180.00000     4.35304     0.00000     0.00000     0.00000
    28.10000    99.15136   180.00000     4.35260     0.00000     0.00000     0.00000
    28.20000    97.77861   180.00000     4.35217     0.00000     0.00000     0.00000
    28.30000    96.03970   180.00000     4.35172     0.00000     0.00000     0.00000
    28.40000    93.64178   180.00000     4.35128     0.00000     0.00000     0.00000
    28.50000    90.00000   180.00000     4.35100     0.00000     0.00000     0.00000
    28.60000    90.00000   180.00000     4.35096     0.00000     0.00000     0.00000
    28.70000    90.00000   180.00000     4.35092     0.00000     0.00000     0.00000
    28.80000    90.00000   180.00000     4.35088     0.00000     0.00000     0.00000
    28.90000    90.00000   180.00000     4.35083     0.00000     0.00000     0.00000
    29.00000    90.00000   180.00000     4.35079     0.00000     0.00000     0.00000
    29.10000    90.00000   180.00000     4.35075     0.00000     0.00000     0.00000
    29.20000    90.00000   180.00000     4.35070     0.00000     0.00000     0.00000
    29.30000    90.00000   180.00000     4.35066     0.00000     0.00000     0.00000
    29.40000    90.00000   180.00000     4.35062     0.00000     0.00000     0.00000
    29.50000    90.00000   180.00000     4.35058     0.00000     0.00000     0.00000
    29.60000    90.00000   180.00000     4.35053     0.00000     0.00000     0.00000
    29.70000    90.00000   180.00000     4.35049     0.00000     0.00000     0.00000
    29.80000    90.00000   180.00000     4.35045     0.00000     0.00000     0.00000
    29.90000    90.00000   180.00000     4.35040     0.00000     0.00000     0.00000
    30.00000    90.00000   180.00000     4.35036     0.00000     0.00000     0.00000
    30.10000    90.00000   180.00000     4.35032     0.00000     0.00000     0.00000
    30.20000    90.00000   180.00000     4.35028     0.00000     0.00000     0.00000
    30.30000    90.00000   180.00000     4.35023     0.00000     0.00000     0.00000
    30.40000    90.00000   180.00000     4.35019     0.00000     0.00000     0.00000
    30.50000    90.00000   180.00000     4.35015     0.00000     0.00000     0.00000
    30.60000    90.00000   180.00000     4.35010     0.00000     0.00000     0.00000
    30.70000    90.00000   180.00000     4.35006     0.00000     0.00000     0.00000
    30.80000    90.00000   180.00000     4.35002     0.00000     0.00000     0.00000
    30.90000    90.00000   180.00000     4.34997     0.00000     0.00000     0.00000
    31.00000    90.00000   180.00000     4.34993     0.00000     0.00000     0.00000
    31.10000    90.00000   180.00000     4.34989     0.00000     0.00000     0.00000
    31.20000    90.00000   180.00000     4.34985     0.00000     0.00000     0.00000
    31.30000    90.00000   180.00000     4.34980     0.00000     0.00000     0.00000
    31.40000    90.00000   180.00000     4.34976     0.00000     0.00000     0.00000
    31.50000    90.00000   180.00000     4.34972     0.00000     0.00000     0.00000
    31.60000    90.00000   180.00000     4.34967     0.00000     0.00000     0.00000
    31.70000    90.00000   180.00000     4.34963     0.00000     0.00000     0.00000
    31.80000    90.00000   180.00000     4.34959     0.00000     0.00000     0.00000
    31.90000    90.00000   180.00000     4.34954     0.00000     0.00000     0.00000
    32.00000    90.00000   180.00000     4.34950     0.00000     0.00000     0.00000
    32.10000    90.00000   180.00000     4.34946     0.00000     0.00000     0.00000
    32.20000    90.00000   180.00000     4.34942     0.00000     0.00000     0.00000
    32.30000    90.00000   180.00000     4.34937     0.00000     0.00000     0.00000
    32.40000    90.00000   180.00000     4.34933     0.00000     0.00000     0.00000
    32.50000    90.00000   180.00000     4.34929     0.00000     0.00000     0.00000
    32.60000    90.00000   180.00000     4.34924     0.00000     0.00000     0.00000
    32.70000    90.00000   180.00000     4.34920     0.00000     0.00000     0.00000
    32.80000    90.00000   180.00000     4.34916     0.00000     0.00000     0.00000
    32.90000    90.00000   180.00000     4.34911     0.00000     0.00000     0.00000
    33.00000    90.00000   180.00000     4.34907     0.00000     0.00000     0.00000
    33.10000    90.00000   180.00000     4.34903     0.00000     0.00000     0.00000
    33.20000    90.00000   180.00000     4.34899     0.00000     0.00000     0.00000
    33.30000    90.00000   180.00000     4.34894     0.00000     0.00000     0.00000
    33.40000    90.00000   180.00000     4.34890     0.00000     0.00000     0.00000
    33.50000    90.00000   180.00000     4.34886     0.00000     0.00000     0.00000
    33.60000    90.00000   180.00000     4.34881     0.00000     0.00000     0.00000
    33.70000    90.00000   180.00000     4.34877     0.00000     0.00000     0.00000
    33.80000    90.00000   180.00000     4.34873     0.00000     0.00000     0.00000
    33.90000    90.00000   180.00000     4.34868     0.00000     0.00000     0.00000
    34.00000    90.00000   180.00000     4.34864     0.00000     0.00000     0.00000
    34.10000    90.00000   180.00000     4.34860     0.00000     0.00000     0.00000
    34.20000    90.00000   180.00000     4.34855     0.00000     0.00000     0.00000
    34.30000    90.00000   180.00000     4.34851     0.00000     0.00000     0.00000
    34.40000    90.00000   180.00000     4.34847     0.00000     0.00000     0.00000
    34.50000    90.00000   180.00000     4.34842     0.00000     0.00000     0.00000
    34.60000    90.00000   180.00000     4.34838     0.00000     0.00000     0.00000
    34.70000    90.00000   180.00000     4.34834     0.00000     0.00000     0.00000
    34.80000    90.00000   180.00000     4.34829     0.00000     0.00000     0.00000
    34.90000    90.00000   180.00000     4.34825     0.00000     0.00000     0.00000
    35.00000    90.00000   180.00000     4.34821     0.00000     0.00000     0.00000
    35.10000    90.00000   180.00000     4.34816     0.00000     0.00000     0.00000
    35.20000    90.00000   180.00000     4.34812     0.00000     0.00000     0.00000
    35.30000    90.00000   180.00000     4.34808     0.00000     0.00000     0.00000
    35.40000    90.00000   180.00000     4.34804     0.00000     0.00000     0.00000
    35.50000    90.00000   180.00000     4.34799     0.00000     0.00000     0.00000
    35.60000    90.00000   180.00000     4.34795     0.00000     0.00000     0.00000
    35.70000    90.00000   180.00000     4.34791     0.00000     0.00000     0.00000
    35.80000    90.00000   180.00000     4.34786     0.00000     0.00000     0.00000
    35.90000    90.00000   180.00000     4.34782     0.00000     0.00000     0.00000
    36.00000    90.00000   180.00000     4.34778     0.00000     0.00000     0.00000
    36.10000    90.00000   180.00000     4.34773     0.00000     0.00000     0.00000
    36.20000    90.00000   180.00000     4.34769     0.00000     0.00000     0.00000
    36.30000    90.00000   180.00000     4.34765     0.00000     0.00000     0.00000
    36.40000    90.00000   180.00000     4.34760     0.00000     0.00000     0.00000
    36.50000    90.00000   180.00000     4.34756     0.00000     0.00000     0.00000
    36.60000    90.00000   180.00000     4.34752     0.00000     0.00000     0.00000
    36.70000    90.00000   180.00000     4.34747     0.00000     0.00000     0.00000
    36.80000    90.00000   180.00000     4.34743     0.00000     0.00000     0.00000
    36.90000    90.00000   180.00000     4.34739     0.00000     0.00000     0.00000
    37.00000    90.00000   180.00000     4.34734     0.00000     0.00000     0.00000
    37.10000    90.00000   180.00000     4.34730     0.00000     0.00000     0.00000
    37.20000    90.00000   180.00000     4.34726     0.00000     0.00000     0.00000
    37.30000    90.00000   180.00000     4.34721     0.00000     0.00000     0.00000
    37.40000    90.00000   180.00000     4.34717     0.00000     0.00000     0.00000
    37.50000    90.00000   180.00000     4.34713     0.00000     0.00000     0.00000
    37.60000    90.00000   180.00000     4.34708     0.00000     0.00000     0.00000
    37.70000    90.00000   180.00000     4.34704     0.00000     0.00000     0.00000
    37.80000    90.00000   180.00000     4.34700     0.00000     0.00000     0.00000
    37.90000    90.00000   180.00000     4.34695     0.00000     0.00000     0.00000
    38.00000    90.00000   180.00000     4.34691     0.00000     0.00000     0.00000
    38.10000    90.00000   180.00000     4.34687     0.00000     0.00000     0.00000
    38.20000    90.00000   180.00000     4.34682     0.00000     0.00000     0.00000
    38.30000    90.00000   180.00000     4.34678     0.00000     0.00000     0.00000
    38.40000    90.00000   180.00000     4.34674     0.00000     0.00000     0.00000
    38.50000    90.00000   180.00000     4.34669     0.00000     0.00000     0.00000
    38.60000    90.00000   180.00000     4.34665     0.00000     0.00000     0.00000
    38.70000    90.00000   180.00000     4.34661     0.00000     0.00000     0.00000
    38.80000    90.00000   180.00000     4.34656     0.00000     0.00000     0.00000
    38.90000    90.00000   180.00000     4.34652     0.00000     0.00000     0.00000
    39.00000    90.00000   180.00000     4.34647     0.00000     0.00000     0.00000
    39.10000    90.00000   180.00000     4.34643     0.00000     0.00000     0.00000
    39.20000    90.00000   180.00000     4.34639     0.00000     0.00000     0.00000
    39.30000    90.00000   180.00000     4.34634     0.00000     0.00000     0.00000
    39.40000    90.00000   180.00000     4.34630     0.00000     0.00000     0.00000
    39.50000    90.00000   180.00000     4.34626     0.00000     0.00000     0.00000
    39.60000    90.00000   180.00000     4.34621     0.00000     0.00000     0.00000
    39.70000    90.00000   180.00000     4.34617     0.00000     0.00000     0.00000
    39.80000    90.00000   180.00000     4.34613     0.00000     0.00000     0.00000
    39.90000    90.00000   180.00000     4.34608     0.00000     0.00000     0.00000
    40.00000    90.00000   180.00000     4.34604     0.00000     0.00000     0.00000
