 # applied field (T), theta (degree), phi (degree), abs
     0.00000     0.00000     0.00000    39.01732
     0.10000     0.28662     0.00000    39.01732
     0.20000     0.63057     0.00000    39.01732
     0.30000     0.91720     0.00000    39.01732
     0.40000     1.20382     0.00000    39.01732
     0.50000     1.49045     0.00000    39.01732
     0.60000     1.83439     0.00000    39.01732
     0.70000     2.12102     0.00000    39.01732
     0.80000     2.40764     0.00000    39.01732
     0.90000     2.75159     0.00000    39.01732
     1.00000     3.03822     0.00000    39.01732
     1.10000     3.32484     0.00000    39.01732
     1.20000     3.66879     0.00000    39.01732
     1.30000     3.95541     0.00000    39.01732
     1.40000     4.24204     0.00000    39.01732
     1.50000     4.58599     0.00000    39.01732
     1.60000     4.87261     0.00000    39.01732
     1.70000     5.15924     0.00000    39.01732
     1.80000     5.44586     0.00000    39.01732
     1.90000     5.78981     0.00000    39.01732
     2.00000     6.07643     0.00000    39.01732
     2.10000     6.36306     0.00000    39.01732
     2.20000     6.70701     0.00000    39.01732
     2.30000     6.99363     0.00000    39.01732
     2.40000     7.28025     0.00000    39.01732
     2.50000     7.62420     0.00000    39.01732
     2.60000     7.91083     0.00000    39.01732
     2.70000     8.19745     0.00000    39.01732
     2.80000     8.54140     0.00000    39.01732
     2.90000     8.82803     0.00000    39.01732
     3.00000     9.11465     0.00000    39.01732
     3.10000     9.45860     0.00000    39.01732
     3.20000     9.74522     0.00000    39.01732
     3.30000    10.03185     0.00000    39.01732
     3.40000    10.37580     0.00000    39.01732
     3.50000    10.66242     0.00000    39.01732
     3.60000    11.00637     0.00000    39.01732
     3.70000    11.29299     0.00000    39.01732
     3.80000    11.57962     0.00000    39.01732
     3.90000    11.92357     0.00000    39.01732
     4.00000    12.21019     0.00000    39.01732
     4.10000    12.49682     0.00000    39.01732
     4.20000    12.84076     0.00000    39.01732
     4.30000    13.12739     0.00000    39.01732
     4.40000    13.47134     0.00000    39.01732
     4.50000    13.75796     0.00000    39.01732
     4.60000    14.04459     0.00000    39.01732
     4.70000    14.38854     0.00000    39.01732
     4.80000    14.67516     0.00000    39.01732
     4.90000    15.01911     0.00000    39.01732
     5.00000    15.30573     0.00000    39.01732
     5.10000    15.64968     0.00000    39.01732
     5.20000    15.93631     0.00000    39.01732
     5.30000    16.22293     0.00000    39.01732
     5.40000    16.56688     0.00000    39.01732
     5.50000    16.85350     0.00000    39.01732
     5.60000    17.19745     0.00000    39.01732
     5.70000    17.48408     0.00000    39.01732
     5.80000    17.82803     0.00000    39.01732
     5.90000    18.11465     0.00000    39.01732
     6.00000    18.45860     0.00000    39.01732
     6.10000    18.74522     0.00000    39.01732
     6.20000    19.08917     0.00000    39.01732
     6.30000    19.37580     0.00000    39.01732
     6.40000    19.71975     0.00000    39.01732
     6.50000    20.00637     0.00000    39.01732
     6.60000    20.35032     0.00000    39.01732
     6.70000    20.63694     0.00000    39.01732
     6.80000    20.98089     0.00000    39.01732
     6.90000    21.32484     0.00000    39.01732
     7.00000    21.61146     0.00000    39.01732
     7.10000    21.95541     0.00000    39.01732
     7.20000    22.24204     0.00000    39.01732
     7.30000    22.58599     0.00000    39.01732
     7.40000    22.92994     0.00000    39.01732
     7.50000    23.21656     0.00000    39.01732
     7.60000    23.56051     0.00000    39.01732
     7.70000    23.90446     0.00000    39.01732
     7.80000    24.19108     0.00000    39.01732
     7.90000    24.53503     0.00000    39.01732
     8.00000    24.87898     0.00000    39.01732
     8.10000    25.16561     0.00000    39.01732
     8.20000    25.50955     0.00000    39.01732
     8.30000    25.85350     0.00000    39.01732
     8.40000    26.14013     0.00000    39.01732
     8.50000    26.48408     0.00000    39.01732
     8.60000    26.82803     0.00000    39.01732
     8.70000    27.17197     0.00000    39.01732
     8.80000    27.45860     0.00000    39.01732
     8.90000    27.80255     0.00000    39.01732
     9.00000    28.14650     0.00000    39.01732
     9.10000    28.49045     0.00000    39.01732
     9.20000    28.83439     0.00000    39.01732
     9.30000    29.12102     0.00000    39.01732
     9.40000    29.46497     0.00000    39.01732
     9.50000    29.80892     0.00000    39.01732
     9.60000    30.15287     0.00000    39.01732
     9.70000    30.49682     0.00000    39.01732
     9.80000    30.84076     0.00000    39.01732
     9.90000    31.18471     0.00000    39.01732
    10.00000    31.52866     0.00000    39.01732
    10.10000    31.87261     0.00000    39.01732
    10.20000    32.21656     0.00000    39.01732
    10.30000    32.56051     0.00000    39.01732
    10.40000    32.90446     0.00000    39.01732
    10.50000    33.24841     0.00000    39.01732
    10.60000    33.59236     0.00000    39.01732
    10.70000    33.93631     0.00000    39.01732
    10.80000    34.28025     0.00000    39.01732
    10.90000    34.62420     0.00000    39.01732
    11.00000    34.96815     0.00000    39.01732
    11.10000    35.36943     0.00000    39.01732
    11.20000    35.71338     0.00000    39.01732
    11.30000    36.05732     0.00000    39.01732
    11.40000    36.40127     0.00000    39.01732
    11.50000    36.74522     0.00000    39.01732
    11.60000    37.14650     0.00000    39.01732
    11.70000    37.49045     0.00000    39.01732
    11.80000    37.83439     0.00000    39.01732
    11.90000    38.23567     0.00000    39.01732
    12.00000    38.57962     0.00000    39.01732
    12.10000    38.92357     0.00000    39.01732
    12.20000    39.32484     0.00000    39.01732
    12.30000    39.66879     0.00000    39.01732
    12.40000    40.07006     0.00000    39.01732
    12.50000    40.41401     0.00000    39.01732
    12.60000    40.81529     0.00000    39.01732
    12.70000    41.15924     0.00000    39.01732
    12.80000    41.56051     0.00000    39.01732
    12.90000    41.96178     0.00000    39.01732
    13.00000    42.30573     0.00000    39.01732
    13.10000    42.70701     0.00000    39.01732
    13.20000    43.10828     0.00000    39.01732
    13.30000    43.50955     0.00000    39.01732
    13.40000    43.85350     0.00000    39.01732
    13.50000    44.25478     0.00000    39.01732
    13.60000    44.65605     0.00000    39.01732
    13.70000    45.05732     0.00000    39.01732
    13.80000    45.45860     0.00000    39.01732
    13.90000    45.85987     0.00000    39.01732
    14.00000    46.26115     0.00000    39.01732
    14.10000    46.66242     0.00000    39.01732
    14.20000    47.06369     0.00000    39.01732
    14.30000    47.52229     0.00000    39.01732
    14.40000    47.92357     0.00000    39.01732
    14.50000    48.32484     0.00000    39.01732
    14.60000    48.78344     0.00000    39.01732
    14.70000    49.18471     0.00000    39.01732
    14.80000    49.58599     0.00000    39.01732
    14.90000    50.04459     0.00000    39.01732
    15.00000    50.44586     0.00000    39.01732
    15.10000    50.90446     0.00000    39.01732
    15.20000    51.36306     0.00000    39.01732
    15.30000    51.82166     0.00000    39.01732
    15.40000    52.22293     0.00000    39.01732
    15.50000    52.68153     0.00000    39.01732
    15.60000    53.14013     0.00000    39.01732
    15.70000    53.59873     0.00000    39.01732
    15.80000    54.11465     0.00000    39.01732
    15.90000    54.57325     0.00000    39.01732
    16.00000    55.03185     0.00000    39.01732
    16.10000    55.49045     0.00000    39.01732
    16.20000    56.00637     0.00000    39.01732
    16.30000    56.52229     0.00000    39.01732
    16.40000    56.98089     0.00000    39.01732
    16.50000    57.49682     0.00000    39.01732
    16.60000    58.01274     0.00000    39.01732
    16.70000    58.52866     0.00000    39.01732
    16.80000    59.04459     0.00000    39.01732
    16.90000    59.56051     0.00000    39.01732
    17.00000    60.13376     0.00000    39.01732
    17.10000    60.64968     0.00000    39.01732
    17.20000    61.22293     0.00000    39.01732
    17.30000    61.79618     0.00000    39.01732
    17.40000    62.36943     0.00000    39.01732
    17.50000    62.94268     0.00000    39.01732
    17.60000    63.57325     0.00000    39.01732
    17.70000    64.14650     0.00000    39.01732
    17.80000    64.77707     0.00000    39.01732
    17.90000    65.40764     0.00000    39.01732
    18.00000    66.09554     0.00000    39.01732
    18.10000    66.72611     0.00000    39.01732
    18.20000    67.41401     0.00000    39.01732
    18.30000    68.10191     0.00000    39.01732
    18.40000    68.84713     0.00000    39.01732
    18.50000    69.59236     0.00000    39.01732
    18.60000    70.39490     0.00000    39.01732
    18.70000    71.19745     0.00000    39.01732
    18.80000    72.00000     0.00000    39.01732
    18.90000    72.91720     0.00000    39.01732
    19.00000    73.83439     0.00000    39.01732
    19.10000    74.80892     0.00000    39.01732
    19.20000    75.84076     0.00000    39.01732
    19.30000    76.92994     0.00000    39.01732
    19.40000    78.19108     0.00000    39.01732
    19.50000    79.50955     0.00000    39.01732
    19.60000    81.05732     0.00000    39.01732
    19.70000    82.94904     0.00000    39.01732
    19.80000    85.58599     0.00000    39.01732
    19.90000    90.00000     0.00000    39.01732
    20.00000    90.00000     0.00000    39.01732
    20.10000    90.00000     0.00000    39.01732
    20.20000    90.00000     0.00000    39.01732
    20.30000    90.00000     0.00000    39.01732
    20.40000    90.00000     0.00000    39.01732
    20.50000    90.00000     0.00000    39.01732
    20.60000    90.00000     0.00000    39.01732
    20.70000    90.00000     0.00000    39.01732
    20.80000    90.00000     0.00000    39.01732
    20.90000    90.00000     0.00000    39.01732
    21.00000    90.00000     0.00000    39.01732
    21.10000    90.00000     0.00000    39.01732
    21.20000    90.00000     0.00000    39.01732
    21.30000    90.00000     0.00000    39.01732
    21.40000    90.00000     0.00000    39.01732
    21.50000    90.00000     0.00000    39.01732
    21.60000    90.00000     0.00000    39.01732
    21.70000    90.00000     0.00000    39.01732
    21.80000    90.00000     0.00000    39.01732
    21.90000    90.00000     0.00000    39.01732
    22.00000    90.00000     0.00000    39.01732
    22.10000    90.00000     0.00000    39.01732
    22.20000    90.00000     0.00000    39.01732
    22.30000    90.00000     0.00000    39.01732
    22.40000    90.00000     0.00000    39.01732
    22.50000    90.00000     0.00000    39.01732
    22.60000    90.00000     0.00000    39.01732
    22.70000    90.00000     0.00000    39.01732
    22.80000    90.00000     0.00000    39.01732
    22.90000    90.00000     0.00000    39.01732
    23.00000    90.00000     0.00000    39.01732
    23.10000    90.00000     0.00000    39.01732
    23.20000    90.00000     0.00000    39.01732
    23.30000    90.00000     0.00000    39.01732
    23.40000    90.00000     0.00000    39.01732
    23.50000    90.00000     0.00000    39.01732
    23.60000    90.00000     0.00000    39.01732
    23.70000    90.00000     0.00000    39.01732
    23.80000    90.00000     0.00000    39.01732
    23.90000    90.00000     0.00000    39.01732
    24.00000    90.00000     0.00000    39.01732
    24.10000    90.00000     0.00000    39.01732
    24.20000    90.00000     0.00000    39.01732
    24.30000    90.00000     0.00000    39.01732
    24.40000    90.00000     0.00000    39.01732
    24.50000    90.00000     0.00000    39.01732
    24.60000    90.00000     0.00000    39.01732
    24.70000    90.00000     0.00000    39.01732
    24.80000    90.00000     0.00000    39.01732
    24.90000    90.00000     0.00000    39.01732
    25.00000    90.00000     0.00000    39.01732
    25.10000    90.00000     0.00000    39.01732
    25.20000    90.00000     0.00000    39.01732
    25.30000    90.00000     0.00000    39.01732
    25.40000    90.00000     0.00000    39.01732
    25.50000    90.00000     0.00000    39.01732
    25.60000    90.00000     0.00000    39.01732
    25.70000    90.00000     0.00000    39.01732
    25.80000    90.00000     0.00000    39.01732
    25.90000    90.00000     0.00000    39.01732
    26.00000    90.00000     0.00000    39.01732
    26.10000    90.00000     0.00000    39.01732
    26.20000    90.00000     0.00000    39.01732
    26.30000    90.00000     0.00000    39.01732
    26.40000    90.00000     0.00000    39.01732
    26.50000    90.00000     0.00000    39.01732
    26.60000    90.00000     0.00000    39.01732
    26.70000    90.00000     0.00000    39.01732
    26.80000    90.00000     0.00000    39.01732
    26.90000    90.00000     0.00000    39.01732
    27.00000    90.00000     0.00000    39.01732
    27.10000    90.00000     0.00000    39.01732
    27.20000    90.00000     0.00000    39.01732
    27.30000    90.00000     0.00000    39.01732
    27.40000    90.00000     0.00000    39.01732
    27.50000    90.00000     0.00000    39.01732
    27.60000    90.00000     0.00000    39.01732
    27.70000    90.00000     0.00000    39.01732
    27.80000    90.00000     0.00000    39.01732
    27.90000    90.00000     0.00000    39.01732
    28.00000    90.00000     0.00000    39.01732
    28.10000    90.00000     0.00000    39.01732
    28.20000    90.00000     0.00000    39.01732
    28.30000    90.00000     0.00000    39.01732
    28.40000    90.00000     0.00000    39.01732
    28.50000    90.00000     0.00000    39.01732
    28.60000    90.00000     0.00000    39.01732
    28.70000    90.00000     0.00000    39.01732
    28.80000    90.00000     0.00000    39.01732
    28.90000    90.00000     0.00000    39.01732
    29.00000    90.00000     0.00000    39.01732
    29.10000    90.00000     0.00000    39.01732
    29.20000    90.00000     0.00000    39.01732
    29.30000    90.00000     0.00000    39.01732
    29.40000    90.00000     0.00000    39.01732
    29.50000    90.00000     0.00000    39.01732
    29.60000    90.00000     0.00000    39.01732
    29.70000    90.00000     0.00000    39.01732
    29.80000    90.00000     0.00000    39.01732
    29.90000    90.00000     0.00000    39.01732
    30.00000    90.00000     0.00000    39.01732
    30.10000    90.00000     0.00000    39.01732
    30.20000    90.00000     0.00000    39.01732
    30.30000    90.00000     0.00000    39.01732
    30.40000    90.00000     0.00000    39.01732
    30.50000    90.00000     0.00000    39.01732
    30.60000    90.00000     0.00000    39.01732
    30.70000    90.00000     0.00000    39.01732
    30.80000    90.00000     0.00000    39.01732
    30.90000    90.00000     0.00000    39.01732
    31.00000    90.00000     0.00000    39.01732
    31.10000    90.00000     0.00000    39.01732
    31.20000    90.00000     0.00000    39.01732
    31.30000    90.00000     0.00000    39.01732
    31.40000    90.00000     0.00000    39.01732
    31.50000    90.00000     0.00000    39.01732
    31.60000    90.00000     0.00000    39.01732
    31.70000    90.00000     0.00000    39.01732
    31.80000    90.00000     0.00000    39.01732
    31.90000    90.00000     0.00000    39.01732
    32.00000    90.00000     0.00000    39.01732
    32.10000    90.00000     0.00000    39.01732
    32.20000    90.00000     0.00000    39.01732
    32.30000    90.00000     0.00000    39.01732
    32.40000    90.00000     0.00000    39.01732
    32.50000    90.00000     0.00000    39.01732
    32.60000    90.00000     0.00000    39.01732
    32.70000    90.00000     0.00000    39.01732
    32.80000    90.00000     0.00000    39.01732
    32.90000    90.00000     0.00000    39.01732
    33.00000    90.00000     0.00000    39.01732
    33.10000    90.00000     0.00000    39.01732
    33.20000    90.00000     0.00000    39.01732
    33.30000    90.00000     0.00000    39.01732
    33.40000    90.00000     0.00000    39.01732
    33.50000    90.00000     0.00000    39.01732
    33.60000    90.00000     0.00000    39.01732
    33.70000    90.00000     0.00000    39.01732
    33.80000    90.00000     0.00000    39.01732
    33.90000    90.00000     0.00000    39.01732
    34.00000    90.00000     0.00000    39.01732
    34.10000    90.00000     0.00000    39.01732
    34.20000    90.00000     0.00000    39.01732
    34.30000    90.00000     0.00000    39.01732
    34.40000    90.00000     0.00000    39.01732
    34.50000    90.00000     0.00000    39.01732
    34.60000    90.00000     0.00000    39.01732
    34.70000    90.00000     0.00000    39.01732
    34.80000    90.00000     0.00000    39.01732
    34.90000    90.00000     0.00000    39.01732
    35.00000    90.00000     0.00000    39.01732
    35.10000    90.00000     0.00000    39.01732
    35.20000    90.00000     0.00000    39.01732
    35.30000    90.00000     0.00000    39.01732
    35.40000    90.00000     0.00000    39.01732
    35.50000    90.00000     0.00000    39.01732
    35.60000    90.00000     0.00000    39.01732
    35.70000    90.00000     0.00000    39.01732
    35.80000    90.00000     0.00000    39.01732
    35.90000    90.00000     0.00000    39.01732
    36.00000    90.00000     0.00000    39.01732
    36.10000    90.00000     0.00000    39.01732
    36.20000    90.00000     0.00000    39.01732
    36.30000    90.00000     0.00000    39.01732
    36.40000    90.00000     0.00000    39.01732
    36.50000    90.00000     0.00000    39.01732
    36.60000    90.00000     0.00000    39.01732
    36.70000    90.00000     0.00000    39.01732
    36.80000    90.00000     0.00000    39.01732
    36.90000    90.00000     0.00000    39.01732
    37.00000    90.00000     0.00000    39.01732
    37.10000    90.00000     0.00000    39.01732
    37.20000    90.00000     0.00000    39.01732
    37.30000    90.00000     0.00000    39.01732
    37.40000    90.00000     0.00000    39.01732
    37.50000    90.00000     0.00000    39.01732
    37.60000    90.00000     0.00000    39.01732
    37.70000    90.00000     0.00000    39.01732
    37.80000    90.00000     0.00000    39.01732
    37.90000    90.00000     0.00000    39.01732
    38.00000    90.00000     0.00000    39.01732
    38.10000    90.00000     0.00000    39.01732
    38.20000    90.00000     0.00000    39.01732
    38.30000    90.00000     0.00000    39.01732
    38.40000    90.00000     0.00000    39.01732
    38.50000    90.00000     0.00000    39.01732
    38.60000    90.00000     0.00000    39.01732
    38.70000    90.00000     0.00000    39.01732
    38.80000    90.00000     0.00000    39.01732
    38.90000    90.00000     0.00000    39.01732
    39.00000    90.00000     0.00000    39.01732
    39.10000    90.00000     0.00000    39.01732
    39.20000    90.00000     0.00000    39.01732
    39.30000    90.00000     0.00000    39.01732
    39.40000    90.00000     0.00000    39.01732
    39.50000    90.00000     0.00000    39.01732
    39.60000    90.00000     0.00000    39.01732
    39.70000    90.00000     0.00000    39.01732
    39.80000    90.00000     0.00000    39.01732
    39.90000    90.00000     0.00000    39.01732
    40.00000    90.00000     0.00000    39.01732
