 # applied field (T), theta (degree), phi (degree), abs
     0.00000     0.00000     0.00000    43.56095
     0.10000     0.80255     0.00000    43.56095
     0.20000     1.66242     0.00000    43.56095
     0.30000     2.46497     0.00000    43.56095
     0.40000     3.32484     0.00000    43.56095
     0.50000     4.12739     0.00000    43.56095
     0.60000     4.98726     0.00000    43.56095
     0.70000     5.78981     0.00000    43.56095
     0.80000     6.64968     0.00000    43.56095
     0.90000     7.45223     0.00000    43.56095
     1.00000     8.31210     0.00000    43.56095
     1.10000     9.17197     0.00000    43.56095
     1.20000    10.03185     0.00000    43.56095
     1.30000    10.89172     0.00000    43.56095
     1.40000    11.75159     0.00000    43.56095
     1.50000    12.61146     0.00000    43.56095
     1.60000    13.52866     0.00000    43.56095
     1.70000    14.38854     0.00000    43.56095
     1.80000    15.30573     0.00000    43.56095
     1.90000    16.22293     0.00000    43.56095
     2.00000    17.14013     0.00000    43.56095
     2.10000    18.11465     0.00000    43.56095
     2.20000    19.03185     0.00000    43.56095
     2.30000    20.00637     0.00000    43.56095
     2.40000    20.98089     0.00000    43.56095
     2.50000    22.01274     0.00000    43.56095
     2.60000    23.04459     0.00000    43.56095
     2.70000    24.07643     0.00000    43.56095
     2.80000    25.10828     0.00000    43.56095
     2.90000    26.19745     0.00000    43.56095
     3.00000    27.34395     0.00000    43.56095
     3.10000    28.49045     0.00000    43.56095
     3.20000    29.69427     0.00000    43.56095
     3.30000    30.89809     0.00000    43.56095
     3.40000    32.15924     0.00000    43.56095
     3.50000    33.47771     0.00000    43.56095
     3.60000    34.85350     0.00000    43.56095
     3.70000    36.28662     0.00000    43.56095
     3.80000    37.77707     0.00000    43.56095
     3.90000    39.38217     0.00000    43.56095
     4.00000    41.10191     0.00000    43.56095
     4.10000    42.87898     0.00000    43.56095
     4.20000    44.88535     0.00000    43.56095
     4.30000    47.00637     0.00000    43.56095
     4.40000    49.41401     0.00000    43.56095
     4.50000    52.16561     0.00000    43.56095
     4.60000    55.43312     0.00000    43.56095
     4.70000    59.44586     0.00000    43.56095
     4.80000    65.06369     0.00000    43.56095
     4.90000    75.49682     0.00000    43.56095
     5.00000    90.00000     0.00000    43.56095
     5.10000    90.00000     0.00000    43.56095
     5.20000    90.00000     0.00000    43.56095
     5.30000    90.00000     0.00000    43.56095
     5.40000    90.00000     0.00000    43.56095
     5.50000    90.00000     0.00000    43.56095
     5.60000    90.00000     0.00000    43.56095
     5.70000    90.00000     0.00000    43.56095
     5.80000    90.00000     0.00000    43.56095
     5.90000    90.00000     0.00000    43.56095
     6.00000    90.00000     0.00000    43.56095
     6.10000    90.00000     0.00000    43.56095
     6.20000    90.00000     0.00000    43.56095
     6.30000    90.00000     0.00000    43.56095
     6.40000    90.00000     0.00000    43.56095
     6.50000    90.00000     0.00000    43.56095
     6.60000    90.00000     0.00000    43.56095
     6.70000    90.00000     0.00000    43.56095
     6.80000    90.00000     0.00000    43.56095
     6.90000    90.00000     0.00000    43.56095
     7.00000    90.00000     0.00000    43.56095
     7.10000    90.00000     0.00000    43.56095
     7.20000    90.00000     0.00000    43.56095
     7.30000    90.00000     0.00000    43.56095
     7.40000    90.00000     0.00000    43.56095
     7.50000    90.00000     0.00000    43.56095
     7.60000    90.00000     0.00000    43.56095
     7.70000    90.00000     0.00000    43.56095
     7.80000    90.00000     0.00000    43.56095
     7.90000    90.00000     0.00000    43.56095
     8.00000    90.00000     0.00000    43.56095
     8.10000    90.00000     0.00000    43.56095
     8.20000    90.00000     0.00000    43.56095
     8.30000    90.00000     0.00000    43.56095
     8.40000    90.00000     0.00000    43.56095
     8.50000    90.00000     0.00000    43.56095
     8.60000    90.00000     0.00000    43.56095
     8.70000    90.00000     0.00000    43.56095
     8.80000    90.00000     0.00000    43.56095
     8.90000    90.00000     0.00000    43.56095
     9.00000    90.00000     0.00000    43.56095
     9.10000    90.00000     0.00000    43.56095
     9.20000    90.00000     0.00000    43.56095
     9.30000    90.00000     0.00000    43.56095
     9.40000    90.00000     0.00000    43.56095
     9.50000    90.00000     0.00000    43.56095
     9.60000    90.00000     0.00000    43.56095
     9.70000    90.00000     0.00000    43.56095
     9.80000    90.00000     0.00000    43.56095
     9.90000    90.00000     0.00000    43.56095
    10.00000    90.00000     0.00000    43.56095
    10.10000    90.00000     0.00000    43.56095
    10.20000    90.00000     0.00000    43.56095
    10.30000    90.00000     0.00000    43.56095
    10.40000    90.00000     0.00000    43.56095
    10.50000    90.00000     0.00000    43.56095
    10.60000    90.00000     0.00000    43.56095
    10.70000    90.00000     0.00000    43.56095
    10.80000    90.00000     0.00000    43.56095
    10.90000    90.00000     0.00000    43.56095
    11.00000    90.00000     0.00000    43.56095
    11.10000    90.00000     0.00000    43.56095
    11.20000    90.00000     0.00000    43.56095
    11.30000    90.00000     0.00000    43.56095
    11.40000    90.00000     0.00000    43.56095
    11.50000    90.00000     0.00000    43.56095
    11.60000    90.00000     0.00000    43.56095
    11.70000    90.00000     0.00000    43.56095
    11.80000    90.00000     0.00000    43.56095
    11.90000    90.00000     0.00000    43.56095
    12.00000    90.00000     0.00000    43.56095
    12.10000    90.00000     0.00000    43.56095
    12.20000    90.00000     0.00000    43.56095
    12.30000    90.00000     0.00000    43.56095
    12.40000    90.00000     0.00000    43.56095
    12.50000    90.00000     0.00000    43.56095
    12.60000    90.00000     0.00000    43.56095
    12.70000    90.00000     0.00000    43.56095
    12.80000    90.00000     0.00000    43.56095
    12.90000    90.00000     0.00000    43.56095
    13.00000    90.00000     0.00000    43.56095
    13.10000    90.00000     0.00000    43.56095
    13.20000    90.00000     0.00000    43.56095
    13.30000    90.00000     0.00000    43.56095
    13.40000    90.00000     0.00000    43.56095
    13.50000    90.00000     0.00000    43.56095
    13.60000    90.00000     0.00000    43.56095
    13.70000    90.00000     0.00000    43.56095
    13.80000    90.00000     0.00000    43.56095
    13.90000    90.00000     0.00000    43.56095
    14.00000    90.00000     0.00000    43.56095
    14.10000    90.00000     0.00000    43.56095
    14.20000    90.00000     0.00000    43.56095
    14.30000    90.00000     0.00000    43.56095
    14.40000    90.00000     0.00000    43.56095
    14.50000    90.00000     0.00000    43.56095
    14.60000    90.00000     0.00000    43.56095
    14.70000    90.00000     0.00000    43.56095
    14.80000    90.00000     0.00000    43.56095
    14.90000    90.00000     0.00000    43.56095
    15.00000    90.00000     0.00000    43.56095
    15.10000    90.00000     0.00000    43.56095
    15.20000    90.00000     0.00000    43.56095
    15.30000    90.00000     0.00000    43.56095
    15.40000    90.00000     0.00000    43.56095
    15.50000    90.00000     0.00000    43.56095
    15.60000    90.00000     0.00000    43.56095
    15.70000    90.00000     0.00000    43.56095
    15.80000    90.00000     0.00000    43.56095
    15.90000    90.00000     0.00000    43.56095
    16.00000    90.00000     0.00000    43.56095
    16.10000    90.00000     0.00000    43.56095
    16.20000    90.00000     0.00000    43.56095
    16.30000    90.00000     0.00000    43.56095
    16.40000    90.00000     0.00000    43.56095
    16.50000    90.00000     0.00000    43.56095
    16.60000    90.00000     0.00000    43.56095
    16.70000    90.00000     0.00000    43.56095
    16.80000    90.00000     0.00000    43.56095
    16.90000    90.00000     0.00000    43.56095
    17.00000    90.00000     0.00000    43.56095
    17.10000    90.00000     0.00000    43.56095
    17.20000    90.00000     0.00000    43.56095
    17.30000    90.00000     0.00000    43.56095
    17.40000    90.00000     0.00000    43.56095
    17.50000    90.00000     0.00000    43.56095
    17.60000    90.00000     0.00000    43.56095
    17.70000    90.00000     0.00000    43.56095
    17.80000    90.00000     0.00000    43.56095
    17.90000    90.00000     0.00000    43.56095
    18.00000    90.00000     0.00000    43.56095
    18.10000    90.00000     0.00000    43.56095
    18.20000    90.00000     0.00000    43.56095
    18.30000    90.00000     0.00000    43.56095
    18.40000    90.00000     0.00000    43.56095
    18.50000    90.00000     0.00000    43.56095
    18.60000    90.00000     0.00000    43.56095
    18.70000    90.00000     0.00000    43.56095
    18.80000    90.00000     0.00000    43.56095
    18.90000    90.00000     0.00000    43.56095
    19.00000    90.00000     0.00000    43.56095
    19.10000    90.00000     0.00000    43.56095
    19.20000    90.00000     0.00000    43.56095
    19.30000    90.00000     0.00000    43.56095
    19.40000    90.00000     0.00000    43.56095
    19.50000    90.00000     0.00000    43.56095
    19.60000    90.00000     0.00000    43.56095
    19.70000    90.00000     0.00000    43.56095
    19.80000    90.00000     0.00000    43.56095
    19.90000    90.00000     0.00000    43.56095
    20.00000    90.00000     0.00000    43.56095
    20.10000    90.00000     0.00000    43.56095
    20.20000    90.00000     0.00000    43.56095
    20.30000    90.00000     0.00000    43.56095
    20.40000    90.00000     0.00000    43.56095
    20.50000    90.00000     0.00000    43.56095
    20.60000    90.00000     0.00000    43.56095
    20.70000    90.00000     0.00000    43.56095
    20.80000    90.00000     0.00000    43.56095
    20.90000    90.00000     0.00000    43.56095
    21.00000    90.00000     0.00000    43.56095
    21.10000    90.00000     0.00000    43.56095
    21.20000    90.00000     0.00000    43.56095
    21.30000    90.00000     0.00000    43.56095
    21.40000    90.00000     0.00000    43.56095
    21.50000    90.00000     0.00000    43.56095
    21.60000    90.00000     0.00000    43.56095
    21.70000    90.00000     0.00000    43.56095
    21.80000    90.00000     0.00000    43.56095
    21.90000    90.00000     0.00000    43.56095
    22.00000    90.00000     0.00000    43.56095
    22.10000    90.00000     0.00000    43.56095
    22.20000    90.00000     0.00000    43.56095
    22.30000    90.00000     0.00000    43.56095
    22.40000    90.00000     0.00000    43.56095
    22.50000    90.00000     0.00000    43.56095
    22.60000    90.00000     0.00000    43.56095
    22.70000    90.00000     0.00000    43.56095
    22.80000    90.00000     0.00000    43.56095
    22.90000    90.00000     0.00000    43.56095
    23.00000    90.00000     0.00000    43.56095
    23.10000    90.00000     0.00000    43.56095
    23.20000    90.00000     0.00000    43.56095
    23.30000    90.00000     0.00000    43.56095
    23.40000    90.00000     0.00000    43.56095
    23.50000    90.00000     0.00000    43.56095
    23.60000    90.00000     0.00000    43.56095
    23.70000    90.00000     0.00000    43.56095
    23.80000    90.00000     0.00000    43.56095
    23.90000    90.00000     0.00000    43.56095
    24.00000    90.00000     0.00000    43.56095
    24.10000    90.00000     0.00000    43.56095
    24.20000    90.00000     0.00000    43.56095
    24.30000    90.00000     0.00000    43.56095
    24.40000    90.00000     0.00000    43.56095
    24.50000    90.00000     0.00000    43.56095
    24.60000    90.00000     0.00000    43.56095
    24.70000    90.00000     0.00000    43.56095
    24.80000    90.00000     0.00000    43.56095
    24.90000    90.00000     0.00000    43.56095
    25.00000    90.00000     0.00000    43.56095
    25.10000    90.00000     0.00000    43.56095
    25.20000    90.00000     0.00000    43.56095
    25.30000    90.00000     0.00000    43.56095
    25.40000    90.00000     0.00000    43.56095
    25.50000    90.00000     0.00000    43.56095
    25.60000    90.00000     0.00000    43.56095
    25.70000    90.00000     0.00000    43.56095
    25.80000    90.00000     0.00000    43.56095
    25.90000    90.00000     0.00000    43.56095
    26.00000    90.00000     0.00000    43.56095
    26.10000    90.00000     0.00000    43.56095
    26.20000    90.00000     0.00000    43.56095
    26.30000    90.00000     0.00000    43.56095
    26.40000    90.00000     0.00000    43.56095
    26.50000    90.00000     0.00000    43.56095
    26.60000    90.00000     0.00000    43.56095
    26.70000    90.00000     0.00000    43.56095
    26.80000    90.00000     0.00000    43.56095
    26.90000    90.00000     0.00000    43.56095
    27.00000    90.00000     0.00000    43.56095
    27.10000    90.00000     0.00000    43.56095
    27.20000    90.00000     0.00000    43.56095
    27.30000    90.00000     0.00000    43.56095
    27.40000    90.00000     0.00000    43.56095
    27.50000    90.00000     0.00000    43.56095
    27.60000    90.00000     0.00000    43.56095
    27.70000    90.00000     0.00000    43.56095
    27.80000    90.00000     0.00000    43.56095
    27.90000    90.00000     0.00000    43.56095
    28.00000    90.00000     0.00000    43.56095
    28.10000    90.00000     0.00000    43.56095
    28.20000    90.00000     0.00000    43.56095
    28.30000    90.00000     0.00000    43.56095
    28.40000    90.00000     0.00000    43.56095
    28.50000    90.00000     0.00000    43.56095
    28.60000    90.00000     0.00000    43.56095
    28.70000    90.00000     0.00000    43.56095
    28.80000    90.00000     0.00000    43.56095
    28.90000    90.00000     0.00000    43.56095
    29.00000    90.00000     0.00000    43.56095
    29.10000    90.00000     0.00000    43.56095
    29.20000    90.00000     0.00000    43.56095
    29.30000    90.00000     0.00000    43.56095
    29.40000    90.00000     0.00000    43.56095
    29.50000    90.00000     0.00000    43.56095
    29.60000    90.00000     0.00000    43.56095
    29.70000    90.00000     0.00000    43.56095
    29.80000    90.00000     0.00000    43.56095
    29.90000    90.00000     0.00000    43.56095
    30.00000    90.00000     0.00000    43.56095
    30.10000    90.00000     0.00000    43.56095
    30.20000    90.00000     0.00000    43.56095
    30.30000    90.00000     0.00000    43.56095
    30.40000    90.00000     0.00000    43.56095
    30.50000    90.00000     0.00000    43.56095
    30.60000    90.00000     0.00000    43.56095
    30.70000    90.00000     0.00000    43.56095
    30.80000    90.00000     0.00000    43.56095
    30.90000    90.00000     0.00000    43.56095
    31.00000    90.00000     0.00000    43.56095
    31.10000    90.00000     0.00000    43.56095
    31.20000    90.00000     0.00000    43.56095
    31.30000    90.00000     0.00000    43.56095
    31.40000    90.00000     0.00000    43.56095
    31.50000    90.00000     0.00000    43.56095
    31.60000    90.00000     0.00000    43.56095
    31.70000    90.00000     0.00000    43.56095
    31.80000    90.00000     0.00000    43.56095
    31.90000    90.00000     0.00000    43.56095
    32.00000    90.00000     0.00000    43.56095
    32.10000    90.00000     0.00000    43.56095
    32.20000    90.00000     0.00000    43.56095
    32.30000    90.00000     0.00000    43.56095
    32.40000    90.00000     0.00000    43.56095
    32.50000    90.00000     0.00000    43.56095
    32.60000    90.00000     0.00000    43.56095
    32.70000    90.00000     0.00000    43.56095
    32.80000    90.00000     0.00000    43.56095
    32.90000    90.00000     0.00000    43.56095
    33.00000    90.00000     0.00000    43.56095
    33.10000    90.00000     0.00000    43.56095
    33.20000    90.00000     0.00000    43.56095
    33.30000    90.00000     0.00000    43.56095
    33.40000    90.00000     0.00000    43.56095
    33.50000    90.00000     0.00000    43.56095
    33.60000    90.00000     0.00000    43.56095
    33.70000    90.00000     0.00000    43.56095
    33.80000    90.00000     0.00000    43.56095
    33.90000    90.00000     0.00000    43.56095
    34.00000    90.00000     0.00000    43.56095
    34.10000    90.00000     0.00000    43.56095
    34.20000    90.00000     0.00000    43.56095
    34.30000    90.00000     0.00000    43.56095
    34.40000    90.00000     0.00000    43.56095
    34.50000    90.00000     0.00000    43.56095
    34.60000    90.00000     0.00000    43.56095
    34.70000    90.00000     0.00000    43.56095
    34.80000    90.00000     0.00000    43.56095
    34.90000    90.00000     0.00000    43.56095
    35.00000    90.00000     0.00000    43.56095
    35.10000    90.00000     0.00000    43.56095
    35.20000    90.00000     0.00000    43.56095
    35.30000    90.00000     0.00000    43.56095
    35.40000    90.00000     0.00000    43.56095
    35.50000    90.00000     0.00000    43.56095
    35.60000    90.00000     0.00000    43.56095
    35.70000    90.00000     0.00000    43.56095
    35.80000    90.00000     0.00000    43.56095
    35.90000    90.00000     0.00000    43.56095
    36.00000    90.00000     0.00000    43.56095
    36.10000    90.00000     0.00000    43.56095
    36.20000    90.00000     0.00000    43.56095
    36.30000    90.00000     0.00000    43.56095
    36.40000    90.00000     0.00000    43.56095
    36.50000    90.00000     0.00000    43.56095
    36.60000    90.00000     0.00000    43.56095
    36.70000    90.00000     0.00000    43.56095
    36.80000    90.00000     0.00000    43.56095
    36.90000    90.00000     0.00000    43.56095
    37.00000    90.00000     0.00000    43.56095
    37.10000    90.00000     0.00000    43.56095
    37.20000    90.00000     0.00000    43.56095
    37.30000    90.00000     0.00000    43.56095
    37.40000    90.00000     0.00000    43.56095
    37.50000    90.00000     0.00000    43.56095
    37.60000    90.00000     0.00000    43.56095
    37.70000    90.00000     0.00000    43.56095
    37.80000    90.00000     0.00000    43.56095
    37.90000    90.00000     0.00000    43.56095
    38.00000    90.00000     0.00000    43.56095
    38.10000    90.00000     0.00000    43.56095
    38.20000    90.00000     0.00000    43.56095
    38.30000    90.00000     0.00000    43.56095
    38.40000    90.00000     0.00000    43.56095
    38.50000    90.00000     0.00000    43.56095
    38.60000    90.00000     0.00000    43.56095
    38.70000    90.00000     0.00000    43.56095
    38.80000    90.00000     0.00000    43.56095
    38.90000    90.00000     0.00000    43.56095
    39.00000    90.00000     0.00000    43.56095
    39.10000    90.00000     0.00000    43.56095
    39.20000    90.00000     0.00000    43.56095
    39.30000    90.00000     0.00000    43.56095
    39.40000    90.00000     0.00000    43.56095
    39.50000    90.00000     0.00000    43.56095
    39.60000    90.00000     0.00000    43.56095
    39.70000    90.00000     0.00000    43.56095
    39.80000    90.00000     0.00000    43.56095
    39.90000    90.00000     0.00000    43.56095
    40.00000    90.00000     0.00000    43.56095
