 # applied field (T), theta (degree), phi (degree), abs for RE 1-2
     0.00000    90.00000    45.42742     3.26461    90.00000    45.42742     3.26461
     0.10000    90.00000     0.85939     3.26130    90.00000     0.85939     3.26130
     0.20000    90.00000   360.00000     3.26141    90.00000   360.00000     3.26141
     0.30000    90.00000   360.00000     3.26153    90.00000   360.00000     3.26153
     0.40000    90.00000   360.00000     3.26164    90.00000   360.00000     3.26164
     0.50000    90.00000   360.00000     3.26175    90.00000   360.00000     3.26175
     0.60000    90.00000   360.00000     3.26187    90.00000   360.00000     3.26187
     0.70000    90.00000   360.00000     3.26198    90.00000   360.00000     3.26198
     0.80000    90.00000   360.00000     3.26209    90.00000   360.00000     3.26209
     0.90000    90.00000   360.00000     3.26220    90.00000   360.00000     3.26220
     1.00000    90.00000   360.00000     3.26232    90.00000   360.00000     3.26232
     1.10000    90.00000   360.00000     3.26243    90.00000   360.00000     3.26243
     1.20000    90.00000   360.00000     3.26254    90.00000   360.00000     3.26254
     1.30000    90.00000   360.00000     3.26266    90.00000   360.00000     3.26266
     1.40000    90.00000   360.00000     3.26277    90.00000   360.00000     3.26277
     1.50000    90.00000   360.00000     3.26288    90.00000   360.00000     3.26288
     1.60000    90.00000   360.00000     3.26300    90.00000   360.00000     3.26300
     1.70000    90.00000   360.00000     3.26311    90.00000   360.00000     3.26311
     1.80000    90.00000   360.00000     3.26322    90.00000   360.00000     3.26322
     1.90000    90.00000   360.00000     3.26333    90.00000   360.00000     3.26333
     2.00000    90.00000   360.00000     3.26345    90.00000   360.00000     3.26345
     2.10000    90.00000   360.00000     3.26356    90.00000   360.00000     3.26356
     2.20000    90.00000   360.00000     3.26367    90.00000   360.00000     3.26367
     2.30000    90.00000   360.00000     3.26378    90.00000   360.00000     3.26378
     2.40000    90.00000   360.00000     3.26390    90.00000   360.00000     3.26390
     2.50000    90.00000   360.00000     3.26401    90.00000   360.00000     3.26401
     2.60000    90.00000   360.00000     3.26412    90.00000   360.00000     3.26412
     2.70000    90.00000   360.00000     3.26423    90.00000   360.00000     3.26423
     2.80000    90.00000   360.00000     3.26435    90.00000   360.00000     3.26435
     2.90000    90.00000   360.00000     3.26446    90.00000   360.00000     3.26446
     3.00000    90.00000   360.00000     3.26457    90.00000   360.00000     3.26457
     3.10000    90.00000   360.00000     3.26468    90.00000   360.00000     3.26468
     3.20000    90.00000   360.00000     3.26480    90.00000   360.00000     3.26480
     3.30000    90.00000   360.00000     3.26491    90.00000   360.00000     3.26491
     3.40000    90.00000   360.00000     3.26502    90.00000   360.00000     3.26502
     3.50000    90.00000   360.00000     3.26513    90.00000   360.00000     3.26513
     3.60000    90.00000   360.00000     3.26524    90.00000   360.00000     3.26524
     3.70000    90.00000   360.00000     3.26536    90.00000   360.00000     3.26536
     3.80000    90.00000   360.00000     3.26547    90.00000   360.00000     3.26547
     3.90000    90.00000   360.00000     3.26558    90.00000   360.00000     3.26558
     4.00000    90.00000   360.00000     3.26569    90.00000   360.00000     3.26569
     4.10000    90.00000   360.00000     3.26580    90.00000   360.00000     3.26580
     4.20000    90.00000   360.00000     3.26592    90.00000   360.00000     3.26592
     4.30000    90.00000   360.00000     3.26603    90.00000   360.00000     3.26603
     4.40000    90.00000   360.00000     3.26614    90.00000   360.00000     3.26614
     4.50000    90.00000   360.00000     3.26625    90.00000   360.00000     3.26625
     4.60000    90.00000   360.00000     3.26636    90.00000   360.00000     3.26636
     4.70000    90.00000   360.00000     3.26648    90.00000   360.00000     3.26648
     4.80000    90.00000   360.00000     3.26659    90.00000   360.00000     3.26659
     4.90000    90.00000   360.00000     3.26670    90.00000   360.00000     3.26670
     5.00000    90.00000   360.00000     3.26681    90.00000   360.00000     3.26681
     5.10000    90.00000   360.00000     3.26692    90.00000   360.00000     3.26692
     5.20000    90.00000   360.00000     3.26703    90.00000   360.00000     3.26703
     5.30000    90.00000   360.00000     3.26715    90.00000   360.00000     3.26715
     5.40000    90.00000   360.00000     3.26726    90.00000   360.00000     3.26726
     5.50000    90.00000   360.00000     3.26737    90.00000   360.00000     3.26737
     5.60000    90.00000   360.00000     3.26748    90.00000   360.00000     3.26748
     5.70000    90.00000   360.00000     3.26759    90.00000   360.00000     3.26759
     5.80000    90.00000   360.00000     3.26770    90.00000   360.00000     3.26770
     5.90000    90.00000   360.00000     3.26781    90.00000   360.00000     3.26781
     6.00000    90.00000   360.00000     3.26793    90.00000   360.00000     3.26793
     6.10000    90.00000   360.00000     3.26804    90.00000   360.00000     3.26804
     6.20000    90.00000   360.00000     3.26815    90.00000   360.00000     3.26815
     6.30000    90.00000   360.00000     3.26826    90.00000   360.00000     3.26826
     6.40000    90.00000   360.00000     3.26837    90.00000   360.00000     3.26837
     6.50000    90.00000   360.00000     3.26848    90.00000   360.00000     3.26848
     6.60000    90.00000   360.00000     3.26859    90.00000   360.00000     3.26859
     6.70000    90.00000   360.00000     3.26870    90.00000   360.00000     3.26870
     6.80000    90.00000   360.00000     3.26882    90.00000   360.00000     3.26882
     6.90000    90.00000   360.00000     3.26893    90.00000   360.00000     3.26893
     7.00000    90.00000   360.00000     3.26904    90.00000   360.00000     3.26904
     7.10000    90.00000   360.00000     3.26915    90.00000   360.00000     3.26915
     7.20000    90.00000   360.00000     3.26926    90.00000   360.00000     3.26926
     7.30000    90.00000   360.00000     3.26937    90.00000   360.00000     3.26937
     7.40000    90.00000   360.00000     3.26948    90.00000   360.00000     3.26948
     7.50000    90.00000   360.00000     3.26959    90.00000   360.00000     3.26959
     7.60000    90.00000   360.00000     3.26970    90.00000   360.00000     3.26970
     7.70000    90.00000   360.00000     3.26981    90.00000   360.00000     3.26981
     7.80000    90.00000   360.00000     3.26992    90.00000   360.00000     3.26992
     7.90000    90.00000   360.00000     3.27004    90.00000   360.00000     3.27004
     8.00000    90.00000   360.00000     3.27015    90.00000   360.00000     3.27015
     8.10000    90.00000   360.00000     3.27026    90.00000   360.00000     3.27026
     8.20000    90.00000   360.00000     3.27037    90.00000   360.00000     3.27037
     8.30000    90.00000   360.00000     3.27048    90.00000   360.00000     3.27048
     8.40000    90.00000   360.00000     3.27059    90.00000   360.00000     3.27059
     8.50000    90.00000   360.00000     3.27070    90.00000   360.00000     3.27070
     8.60000    90.00000   360.00000     3.27081    90.00000   360.00000     3.27081
     8.70000    90.00000   360.00000     3.27092    90.00000   360.00000     3.27092
     8.80000    90.00000   360.00000     3.27103    90.00000   360.00000     3.27103
     8.90000    90.00000   360.00000     3.27114    90.00000   360.00000     3.27114
     9.00000    90.00000   360.00000     3.27125    90.00000   360.00000     3.27125
     9.10000    90.00000   360.00000     3.27136    90.00000   360.00000     3.27136
     9.20000    90.00000   360.00000     3.27147    90.00000   360.00000     3.27147
     9.30000    90.00000   360.00000     3.27158    90.00000   360.00000     3.27158
     9.40000    90.00000   360.00000     3.27169    90.00000   360.00000     3.27169
     9.50000    90.00000   360.00000     3.27180    90.00000   360.00000     3.27180
     9.60000    90.00000   360.00000     3.27191    90.00000   360.00000     3.27191
     9.70000    90.00000   360.00000     3.27202    90.00000   360.00000     3.27202
     9.80000    90.00000   360.00000     3.27213    90.00000   360.00000     3.27213
     9.90000    90.00000   360.00000     3.27224    90.00000   360.00000     3.27224
    10.00000    90.00000   360.00000     3.27235    90.00000   360.00000     3.27235
    10.10000    90.00000   360.00000     3.27246    90.00000   360.00000     3.27246
    10.20000    90.00000   360.00000     3.27257    90.00000   360.00000     3.27257
    10.30000    90.00000   360.00000     3.27268    90.00000   360.00000     3.27268
    10.40000    90.00000   360.00000     3.27279    90.00000   360.00000     3.27279
    10.50000    90.00000   360.00000     3.27290    90.00000   360.00000     3.27290
    10.60000    90.00000   360.00000     3.27301    90.00000   360.00000     3.27301
    10.70000    90.00000   360.00000     3.27312    90.00000   360.00000     3.27312
    10.80000    90.00000   360.00000     3.27323    90.00000   360.00000     3.27323
    10.90000    90.00000   360.00000     3.27334    90.00000   360.00000     3.27334
    11.00000    90.00000   360.00000     3.27345    90.00000   360.00000     3.27345
    11.10000    90.00000   360.00000     3.27356    90.00000   360.00000     3.27356
    11.20000    90.00000   360.00000     3.27367    90.00000   360.00000     3.27367
    11.30000    90.00000   360.00000     3.27378    90.00000   360.00000     3.27378
    11.40000    90.00000   360.00000     3.27389    90.00000   360.00000     3.27389
    11.50000    90.00000   360.00000     3.27400    90.00000   360.00000     3.27400
    11.60000    90.00000   360.00000     3.27411    90.00000   360.00000     3.27411
    11.70000    90.00000   360.00000     3.27422    90.00000   360.00000     3.27422
    11.80000    90.00000   360.00000     3.27433    90.00000   360.00000     3.27433
    11.90000    90.00000   360.00000     3.27444    90.00000   360.00000     3.27444
    12.00000    90.00000   360.00000     3.27455    90.00000   360.00000     3.27455
    12.10000    90.00000   360.00000     3.27466    90.00000   360.00000     3.27466
    12.20000    90.00000   360.00000     3.27477    90.00000   360.00000     3.27477
    12.30000    90.00000   360.00000     3.27488    90.00000   360.00000     3.27488
    12.40000    90.00000   360.00000     3.27499    90.00000   360.00000     3.27499
    12.50000    90.00000   360.00000     3.27509    90.00000   360.00000     3.27509
    12.60000    90.00000   360.00000     3.27520    90.00000   360.00000     3.27520
    12.70000    90.00000   360.00000     3.27531    90.00000   360.00000     3.27531
    12.80000    90.00000   360.00000     3.27542    90.00000   360.00000     3.27542
    12.90000    90.00000   360.00000     3.27553    90.00000   360.00000     3.27553
    13.00000    90.00000   360.00000     3.27564    90.00000   360.00000     3.27564
    13.10000    90.00000   360.00000     3.27575    90.00000   360.00000     3.27575
    13.20000    90.00000   360.00000     3.27586    90.00000   360.00000     3.27586
    13.30000    90.00000   360.00000     3.27597    90.00000   360.00000     3.27597
    13.40000    90.00000   360.00000     3.27608    90.00000   360.00000     3.27608
    13.50000    90.00000   360.00000     3.27619    90.00000   360.00000     3.27619
    13.60000    90.00000   360.00000     3.27629    90.00000   360.00000     3.27629
    13.70000    90.00000   360.00000     3.27640    90.00000   360.00000     3.27640
    13.80000    90.00000   360.00000     3.27651    90.00000   360.00000     3.27651
    13.90000    90.00000   360.00000     3.27662    90.00000   360.00000     3.27662
    14.00000    90.00000   360.00000     3.27673    90.00000   360.00000     3.27673
    14.10000    90.00000   360.00000     3.27684    90.00000   360.00000     3.27684
    14.20000    90.00000   360.00000     3.27695    90.00000   360.00000     3.27695
    14.30000    90.00000   360.00000     3.27706    90.00000   360.00000     3.27706
    14.40000    90.00000   360.00000     3.27716    90.00000   360.00000     3.27716
    14.50000    90.00000   360.00000     3.27727    90.00000   360.00000     3.27727
    14.60000    90.00000   360.00000     3.27738    90.00000   360.00000     3.27738
    14.70000    90.00000   360.00000     3.27749    90.00000   360.00000     3.27749
    14.80000    90.00000   360.00000     3.27760    90.00000   360.00000     3.27760
    14.90000    90.00000   360.00000     3.27771    90.00000   360.00000     3.27771
    15.00000    90.00000   360.00000     3.27782    90.00000   360.00000     3.27782
    15.10000    90.00000   360.00000     3.27792    90.00000   360.00000     3.27792
    15.20000    90.00000   360.00000     3.27803    90.00000   360.00000     3.27803
    15.30000    90.00000   360.00000     3.27814    90.00000   360.00000     3.27814
    15.40000    90.00000   360.00000     3.27825    90.00000   360.00000     3.27825
    15.50000    90.00000   360.00000     3.27836    90.00000   360.00000     3.27836
    15.60000    90.00000   360.00000     3.27847    90.00000   360.00000     3.27847
    15.70000    90.00000   360.00000     3.27857    90.00000   360.00000     3.27857
    15.80000    90.00000   360.00000     3.27868    90.00000   360.00000     3.27868
    15.90000    90.00000   360.00000     3.27879    90.00000   360.00000     3.27879
    16.00000    90.00000   360.00000     3.27890    90.00000   360.00000     3.27890
    16.10000    90.00000   360.00000     3.27901    90.00000   360.00000     3.27901
    16.20000    90.00000   360.00000     3.27911    90.00000   360.00000     3.27911
    16.30000    90.00000   360.00000     3.27922    90.00000   360.00000     3.27922
    16.40000    90.00000   360.00000     3.27933    90.00000   360.00000     3.27933
    16.50000    90.00000   360.00000     3.27944    90.00000   360.00000     3.27944
    16.60000    90.00000   360.00000     3.27955    90.00000   360.00000     3.27955
    16.70000    90.00000   360.00000     3.27965    90.00000   360.00000     3.27965
    16.80000    90.00000   360.00000     3.27976    90.00000   360.00000     3.27976
    16.90000    90.00000   360.00000     3.27987    90.00000   360.00000     3.27987
    17.00000    90.00000   360.00000     3.27998    90.00000   360.00000     3.27998
    17.10000    90.00000   360.00000     3.28009    90.00000   360.00000     3.28009
    17.20000    90.00000   360.00000     3.28019    90.00000   360.00000     3.28019
    17.30000    90.00000   360.00000     3.28030    90.00000   360.00000     3.28030
    17.40000    90.00000   360.00000     3.28041    90.00000   360.00000     3.28041
    17.50000    90.00000   360.00000     3.28052    90.00000   360.00000     3.28052
    17.60000    90.00000   360.00000     3.28062    90.00000   360.00000     3.28062
    17.70000    90.00000   360.00000     3.28073    90.00000   360.00000     3.28073
    17.80000    90.00000   360.00000     3.28084    90.00000   360.00000     3.28084
    17.90000    90.00000   360.00000     3.28095    90.00000   360.00000     3.28095
    18.00000    90.00000   360.00000     3.28106    90.00000   360.00000     3.28106
    18.10000    90.00000   360.00000     3.28116    90.00000   360.00000     3.28116
    18.20000    90.00000   360.00000     3.28127    90.00000   360.00000     3.28127
    18.30000    90.00000   360.00000     3.28138    90.00000   360.00000     3.28138
    18.40000    90.00000   360.00000     3.28148    90.00000   360.00000     3.28148
    18.50000    90.00000   360.00000     3.28159    90.00000   360.00000     3.28159
    18.60000    90.00000   360.00000     3.28170    90.00000   360.00000     3.28170
    18.70000    90.00000   360.00000     3.28181    90.00000   360.00000     3.28181
    18.80000    90.00000   360.00000     3.28191    90.00000   360.00000     3.28191
    18.90000    90.00000   360.00000     3.28202    90.00000   360.00000     3.28202
    19.00000    90.00000   360.00000     3.28213    90.00000   360.00000     3.28213
    19.10000    90.00000   360.00000     3.28224    90.00000   360.00000     3.28224
    19.20000    90.00000   360.00000     3.28234    90.00000   360.00000     3.28234
    19.30000    90.00000   360.00000     3.28245    90.00000   360.00000     3.28245
    19.40000    90.00000   360.00000     3.28256    90.00000   360.00000     3.28256
    19.50000    90.00000   360.00000     3.28266    90.00000   360.00000     3.28266
    19.60000    90.00000   360.00000     3.28277    90.00000   360.00000     3.28277
    19.70000    90.00000   360.00000     3.28288    90.00000   360.00000     3.28288
    19.80000    90.00000   360.00000     3.28298    90.00000   360.00000     3.28298
    19.90000    90.00000   360.00000     3.28309    90.00000   360.00000     3.28309
    20.00000    90.00000   360.00000     3.28320    90.00000   360.00000     3.28320
    20.10000    90.00000   360.00000     3.28331    90.00000   360.00000     3.28331
    20.20000    90.00000   360.00000     3.28341    90.00000   360.00000     3.28341
    20.30000    90.00000   360.00000     3.28352    90.00000   360.00000     3.28352
    20.40000    90.00000   360.00000     3.28363    90.00000   360.00000     3.28363
    20.50000    90.00000   360.00000     3.28373    90.00000   360.00000     3.28373
    20.60000    90.00000   360.00000     3.28384    90.00000   360.00000     3.28384
    20.70000    90.00000   360.00000     3.28395    90.00000   360.00000     3.28395
    20.80000    90.00000   360.00000     3.28405    90.00000   360.00000     3.28405
    20.90000    90.00000   360.00000     3.28416    90.00000   360.00000     3.28416
    21.00000    90.00000   360.00000     3.28427    90.00000   360.00000     3.28427
    21.10000    90.00000   360.00000     3.28437    90.00000   360.00000     3.28437
    21.20000    90.00000   360.00000     3.28448    90.00000   360.00000     3.28448
    21.30000    90.00000   360.00000     3.28458    90.00000   360.00000     3.28458
    21.40000    90.00000   360.00000     3.28469    90.00000   360.00000     3.28469
    21.50000    90.00000   360.00000     3.28480    90.00000   360.00000     3.28480
    21.60000    90.00000   360.00000     3.28490    90.00000   360.00000     3.28490
    21.70000    90.00000   360.00000     3.28501    90.00000   360.00000     3.28501
    21.80000    90.00000   360.00000     3.28512    90.00000   360.00000     3.28512
    21.90000    90.00000   360.00000     3.28522    90.00000   360.00000     3.28522
    22.00000    90.00000   360.00000     3.28533    90.00000   360.00000     3.28533
    22.10000    90.00000   360.00000     3.28544    90.00000   360.00000     3.28544
    22.20000    90.00000   360.00000     3.28554    90.00000   360.00000     3.28554
    22.30000    90.00000   360.00000     3.28565    90.00000   360.00000     3.28565
    22.40000    90.00000   360.00000     3.28575    90.00000   360.00000     3.28575
    22.50000    90.00000   360.00000     3.28586    90.00000   360.00000     3.28586
    22.60000    90.00000   360.00000     3.28597    90.00000   360.00000     3.28597
    22.70000    90.00000   360.00000     3.28607    90.00000   360.00000     3.28607
    22.80000    90.00000   360.00000     3.28618    90.00000   360.00000     3.28618
    22.90000    90.00000   360.00000     3.28628    90.00000   360.00000     3.28628
    23.00000    90.00000   360.00000     3.28639    90.00000   360.00000     3.28639
    23.10000    90.00000   360.00000     3.28650    90.00000   360.00000     3.28650
    23.20000    90.00000   360.00000     3.28660    90.00000   360.00000     3.28660
    23.30000    90.00000   360.00000     3.28671    90.00000   360.00000     3.28671
    23.40000    90.00000   360.00000     3.28681    90.00000   360.00000     3.28681
    23.50000    90.00000   360.00000     3.28692    90.00000   360.00000     3.28692
    23.60000    90.00000   360.00000     3.28702    90.00000   360.00000     3.28702
    23.70000    90.00000   360.00000     3.28713    90.00000   360.00000     3.28713
    23.80000    90.00000   360.00000     3.28724    90.00000   360.00000     3.28724
    23.90000    90.00000   360.00000     3.28734    90.00000   360.00000     3.28734
    24.00000    90.00000   360.00000     3.28745    90.00000   360.00000     3.28745
    24.10000    90.00000   360.00000     3.28755    90.00000   360.00000     3.28755
    24.20000    90.00000   360.00000     3.28766    90.00000   360.00000     3.28766
    24.30000    90.00000   360.00000     3.28776    90.00000   360.00000     3.28776
    24.40000    90.00000   360.00000     3.28787    90.00000   360.00000     3.28787
    24.50000    90.00000   360.00000     3.28797    90.00000   360.00000     3.28797
    24.60000    90.00000   360.00000     3.28808    90.00000   360.00000     3.28808
    24.70000    90.00000   360.00000     3.28819    90.00000   360.00000     3.28819
    24.80000    90.00000   360.00000     3.28829    90.00000   360.00000     3.28829
    24.90000    90.00000   360.00000     3.28840    90.00000   360.00000     3.28840
    25.00000    90.00000   360.00000     3.28850    90.00000   360.00000     3.28850
    25.10000    90.00000   360.00000     3.28861    90.00000   360.00000     3.28861
    25.20000    90.00000   360.00000     3.28871    90.00000   360.00000     3.28871
    25.30000    90.00000   360.00000     3.28882    90.00000   360.00000     3.28882
    25.40000    90.00000   360.00000     3.28892    90.00000   360.00000     3.28892
    25.50000    90.00000   360.00000     3.28903    90.00000   360.00000     3.28903
    25.60000    90.00000   360.00000     3.28913    90.00000   360.00000     3.28913
    25.70000    90.00000   360.00000     3.28924    90.00000   360.00000     3.28924
    25.80000    90.00000   360.00000     3.28934    90.00000   360.00000     3.28934
    25.90000    90.00000   360.00000     3.28945    90.00000   360.00000     3.28945
    26.00000    90.00000   360.00000     3.28955    90.00000   360.00000     3.28955
    26.10000    90.00000   360.00000     3.28966    90.00000   360.00000     3.28966
    26.20000    90.00000   360.00000     3.28976    90.00000   360.00000     3.28976
    26.30000    90.00000   360.00000     3.28987    90.00000   360.00000     3.28987
    26.40000    90.00000   360.00000     3.28997    90.00000   360.00000     3.28997
    26.50000    90.00000   360.00000     3.29008    90.00000   360.00000     3.29008
    26.60000    90.00000   360.00000     3.29018    90.00000   360.00000     3.29018
    26.70000    90.00000   360.00000     3.29029    90.00000   360.00000     3.29029
    26.80000    90.00000   360.00000     3.29039    90.00000   360.00000     3.29039
    26.90000    90.00000   360.00000     3.29050    90.00000   360.00000     3.29050
    27.00000    90.00000   360.00000     3.29060    90.00000   360.00000     3.29060
    27.10000    90.00000   360.00000     3.29071    90.00000   360.00000     3.29071
    27.20000    90.00000   360.00000     3.29081    90.00000   360.00000     3.29081
    27.30000    90.00000   360.00000     3.29091    90.00000   360.00000     3.29091
    27.40000    90.00000   360.00000     3.29102    90.00000   360.00000     3.29102
    27.50000    90.00000   360.00000     3.29112    90.00000   360.00000     3.29112
    27.60000    90.00000   360.00000     3.29123    90.00000   360.00000     3.29123
    27.70000    90.00000   360.00000     3.29133    90.00000   360.00000     3.29133
    27.80000    90.00000   360.00000     3.29144    90.00000   360.00000     3.29144
    27.90000    90.00000   360.00000     3.29154    90.00000   360.00000     3.29154
    28.00000    90.00000   360.00000     3.29165    90.00000   360.00000     3.29165
    28.10000    90.00000   360.00000     3.29175    90.00000   360.00000     3.29175
    28.20000    90.00000   360.00000     3.29185    90.00000   360.00000     3.29185
    28.30000    90.00000   360.00000     3.29196    90.00000   360.00000     3.29196
    28.40000    90.00000   360.00000     3.29206    90.00000   360.00000     3.29206
    28.50000    90.00000   360.00000     3.29217    90.00000   360.00000     3.29217
    28.60000    90.00000   360.00000     3.29227    90.00000   360.00000     3.29227
    28.70000    90.00000   360.00000     3.29238    90.00000   360.00000     3.29238
    28.80000    90.00000   360.00000     3.29248    90.00000   360.00000     3.29248
    28.90000    90.00000   360.00000     3.29258    90.00000   360.00000     3.29258
    29.00000    90.00000   360.00000     3.29269    90.00000   360.00000     3.29269
    29.10000    90.00000   360.00000     3.29279    90.00000   360.00000     3.29279
    29.20000    90.00000   360.00000     3.29290    90.00000   360.00000     3.29290
    29.30000    90.00000   360.00000     3.29300    90.00000   360.00000     3.29300
    29.40000    90.00000   360.00000     3.29310    90.00000   360.00000     3.29310
    29.50000    90.00000   360.00000     3.29321    90.00000   360.00000     3.29321
    29.60000    90.00000   360.00000     3.29331    90.00000   360.00000     3.29331
    29.70000    90.00000   360.00000     3.29341    90.00000   360.00000     3.29341
    29.80000    90.00000   360.00000     3.29352    90.00000   360.00000     3.29352
    29.90000    90.00000   360.00000     3.29362    90.00000   360.00000     3.29362
    30.00000    90.00000   360.00000     3.29373    90.00000   360.00000     3.29373
    30.10000    90.00000   360.00000     3.29383    90.00000   360.00000     3.29383
    30.20000    90.00000   360.00000     3.29393    90.00000   360.00000     3.29393
    30.30000    90.00000   360.00000     3.29404    90.00000   360.00000     3.29404
    30.40000    90.00000   360.00000     3.29414    90.00000   360.00000     3.29414
    30.50000    90.00000   360.00000     3.29424    90.00000   360.00000     3.29424
    30.60000    90.00000   360.00000     3.29435    90.00000   360.00000     3.29435
    30.70000    90.00000   360.00000     3.29445    90.00000   360.00000     3.29445
    30.80000    90.00000   360.00000     3.29455    90.00000   360.00000     3.29455
    30.90000    90.00000   360.00000     3.29466    90.00000   360.00000     3.29466
    31.00000    90.00000   360.00000     3.29476    90.00000   360.00000     3.29476
    31.10000    90.00000   360.00000     3.29486    90.00000   360.00000     3.29486
    31.20000    90.00000   360.00000     3.29497    90.00000   360.00000     3.29497
    31.30000    90.00000   360.00000     3.29507    90.00000   360.00000     3.29507
    31.40000    90.00000   360.00000     3.29517    90.00000   360.00000     3.29517
    31.50000    90.00000   360.00000     3.29528    90.00000   360.00000     3.29528
    31.60000    90.00000   360.00000     3.29538    90.00000   360.00000     3.29538
    31.70000    90.00000   360.00000     3.29548    90.00000   360.00000     3.29548
    31.80000    90.00000   360.00000     3.29559    90.00000   360.00000     3.29559
    31.90000    90.00000   360.00000     3.29569    90.00000   360.00000     3.29569
    32.00000    90.00000   360.00000     3.29579    90.00000   360.00000     3.29579
    32.10000    90.00000   360.00000     3.29590    90.00000   360.00000     3.29590
    32.20000    90.00000   360.00000     3.29600    90.00000   360.00000     3.29600
    32.30000    90.00000   360.00000     3.29610    90.00000   360.00000     3.29610
    32.40000    90.00000   360.00000     3.29621    90.00000   360.00000     3.29621
    32.50000    90.00000   360.00000     3.29631    90.00000   360.00000     3.29631
    32.60000    90.00000   360.00000     3.29641    90.00000   360.00000     3.29641
    32.70000    90.00000   360.00000     3.29651    90.00000   360.00000     3.29651
    32.80000    90.00000   360.00000     3.29662    90.00000   360.00000     3.29662
    32.90000    90.00000   360.00000     3.29672    90.00000   360.00000     3.29672
    33.00000    90.00000   360.00000     3.29682    90.00000   360.00000     3.29682
    33.10000    90.00000   360.00000     3.29693    90.00000   360.00000     3.29693
    33.20000    90.00000   360.00000     3.29703    90.00000   360.00000     3.29703
    33.30000    90.00000   360.00000     3.29713    90.00000   360.00000     3.29713
    33.40000    90.00000   360.00000     3.29723    90.00000   360.00000     3.29723
    33.50000    90.00000   360.00000     3.29734    90.00000   360.00000     3.29734
    33.60000    90.00000   360.00000     3.29744    90.00000   360.00000     3.29744
    33.70000    90.00000   360.00000     3.29754    90.00000   360.00000     3.29754
    33.80000    90.00000   360.00000     3.29764    90.00000   360.00000     3.29764
    33.90000    90.00000   360.00000     3.29775    90.00000   360.00000     3.29775
    34.00000    90.00000   360.00000     3.29785    90.00000   360.00000     3.29785
    34.10000    90.00000   360.00000     3.29795    90.00000   360.00000     3.29795
    34.20000    90.00000   360.00000     3.29805    90.00000   360.00000     3.29805
    34.30000    90.00000   360.00000     3.29816    90.00000   360.00000     3.29816
    34.40000    90.00000   360.00000     3.29826    90.00000   360.00000     3.29826
    34.50000    90.00000   360.00000     3.29836    90.00000   360.00000     3.29836
    34.60000    90.00000   360.00000     3.29846    90.00000   360.00000     3.29846
    34.70000    90.00000   360.00000     3.29857    90.00000   360.00000     3.29857
    34.80000    90.00000   360.00000     3.29867    90.00000   360.00000     3.29867
    34.90000    90.00000   360.00000     3.29877    90.00000   360.00000     3.29877
    35.00000    90.00000   360.00000     3.29887    90.00000   360.00000     3.29887
    35.10000    90.00000   360.00000     3.29897    90.00000   360.00000     3.29897
    35.20000    90.00000   360.00000     3.29908    90.00000   360.00000     3.29908
    35.30000    90.00000   360.00000     3.29918    90.00000   360.00000     3.29918
    35.40000    90.00000   360.00000     3.29928    90.00000   360.00000     3.29928
    35.50000    90.00000   360.00000     3.29938    90.00000   360.00000     3.29938
    35.60000    90.00000   360.00000     3.29948    90.00000   360.00000     3.29948
    35.70000    90.00000   360.00000     3.29959    90.00000   360.00000     3.29959
    35.80000    90.00000   360.00000     3.29969    90.00000   360.00000     3.29969
    35.90000    90.00000   360.00000     3.29979    90.00000   360.00000     3.29979
    36.00000    90.00000   360.00000     3.29989    90.00000   360.00000     3.29989
    36.10000    90.00000   360.00000     3.29999    90.00000   360.00000     3.29999
    36.20000    90.00000   360.00000     3.30010    90.00000   360.00000     3.30010
    36.30000    90.00000   360.00000     3.30020    90.00000   360.00000     3.30020
    36.40000    90.00000   360.00000     3.30030    90.00000   360.00000     3.30030
    36.50000    90.00000   360.00000     3.30040    90.00000   360.00000     3.30040
    36.60000    90.00000   360.00000     3.30050    90.00000   360.00000     3.30050
    36.70000    90.00000   360.00000     3.30060    90.00000   360.00000     3.30060
    36.80000    90.00000   360.00000     3.30071    90.00000   360.00000     3.30071
    36.90000    90.00000   360.00000     3.30081    90.00000   360.00000     3.30081
    37.00000    90.00000   360.00000     3.30091    90.00000   360.00000     3.30091
    37.10000    90.00000   360.00000     3.30101    90.00000   360.00000     3.30101
    37.20000    90.00000   360.00000     3.30111    90.00000   360.00000     3.30111
    37.30000    90.00000   360.00000     3.30121    90.00000   360.00000     3.30121
    37.40000    90.00000   360.00000     3.30131    90.00000   360.00000     3.30131
    37.50000    90.00000   360.00000     3.30142    90.00000   360.00000     3.30142
    37.60000    90.00000   360.00000     3.30152    90.00000   360.00000     3.30152
    37.70000    90.00000   360.00000     3.30162    90.00000   360.00000     3.30162
    37.80000    90.00000   360.00000     3.30172    90.00000   360.00000     3.30172
    37.90000    90.00000   360.00000     3.30182    90.00000   360.00000     3.30182
    38.00000    90.00000   360.00000     3.30192    90.00000   360.00000     3.30192
    38.10000    90.00000   360.00000     3.30202    90.00000   360.00000     3.30202
    38.20000    90.00000   360.00000     3.30212    90.00000   360.00000     3.30212
    38.30000    90.00000   360.00000     3.30223    90.00000   360.00000     3.30223
    38.40000    90.00000   360.00000     3.30233    90.00000   360.00000     3.30233
    38.50000    90.00000   360.00000     3.30243    90.00000   360.00000     3.30243
    38.60000    90.00000   360.00000     3.30253    90.00000   360.00000     3.30253
    38.70000    90.00000   360.00000     3.30263    90.00000   360.00000     3.30263
    38.80000    90.00000   360.00000     3.30273    90.00000   360.00000     3.30273
    38.90000    90.00000   360.00000     3.30283    90.00000   360.00000     3.30283
    39.00000    90.00000   360.00000     3.30293    90.00000   360.00000     3.30293
    39.10000    90.00000   360.00000     3.30303    90.00000   360.00000     3.30303
    39.20000    90.00000   360.00000     3.30313    90.00000   360.00000     3.30313
    39.30000    90.00000   360.00000     3.30324    90.00000   360.00000     3.30324
    39.40000    90.00000   360.00000     3.30334    90.00000   360.00000     3.30334
    39.50000    90.00000   360.00000     3.30344    90.00000   360.00000     3.30344
    39.60000    90.00000   360.00000     3.30354    90.00000   360.00000     3.30354
    39.70000    90.00000   360.00000     3.30364    90.00000   360.00000     3.30364
    39.80000    90.00000   360.00000     3.30374    90.00000   360.00000     3.30374
    39.90000    90.00000   360.00000     3.30384    90.00000   360.00000     3.30384
    40.00000    90.00000   360.00000     3.30394    90.00000   360.00000     3.30394
