 # applied field (T), theta (degree), phi (degree), abs for RE 3-4
     0.00000   180.00000   180.00000     3.69254   180.00000   360.00000     3.69254
     0.10000   179.21644   180.00000     3.69251   179.20582   180.00000     3.69250
     0.20000   178.43279   180.00000     3.69244   178.41156   180.00000     3.69239
     0.30000   177.59669   180.00000     3.69230   177.56414   180.00000     3.69218
     0.40000   176.81263   180.00000     3.69212   176.76947   180.00000     3.69192
     0.50000   176.02825   180.00000     3.69189   175.97449   180.00000     3.69158
     0.60000   175.24347   180.00000     3.69162   175.17911   180.00000     3.69116
     0.70000   174.40581   180.00000     3.69126   174.33014   180.00000     3.69064
     0.80000   173.61996   180.00000     3.69088   173.53371   180.00000     3.69008
     0.90000   172.78098   180.00000     3.69042   172.68344   180.00000     3.68939
     1.00000   171.99375   180.00000     3.68993   171.88563   180.00000     3.68868
     1.10000   171.15313   180.00000     3.68935   171.03374   180.00000     3.68785
     1.20000   170.36421   180.00000     3.68876   170.23424   180.00000     3.68700
     1.30000   169.52162   180.00000     3.68807   169.38039   180.00000     3.68601
     1.40000   168.67789   180.00000     3.68732   168.52540   180.00000     3.68495
     1.50000   167.83295   180.00000     3.68651   167.66920   180.00000     3.68382
     1.60000   166.98672   180.00000     3.68564   166.81170   180.00000     3.68262
     1.70000   166.13913   180.00000     3.68471   165.95284   180.00000     3.68135
     1.80000   165.29009   180.00000     3.68372   165.09254   180.00000     3.68001
     1.90000   164.38630   180.00000     3.68260   164.17676   180.00000     3.67852
     2.00000   163.53408   180.00000     3.68148   163.31326   180.00000     3.67705
     2.10000   162.62677   180.00000     3.68022   162.39394   180.00000     3.67542
     2.20000   161.71753   180.00000     3.67888   161.47268   180.00000     3.67373
     2.30000   160.80630   180.00000     3.67747   160.54941   180.00000     3.67198
     2.40000   159.83919   180.00000     3.67589   159.56952   180.00000     3.67006
     2.50000   158.92366   180.00000     3.67431   158.64191   180.00000     3.66819
     2.60000   157.95186   180.00000     3.67256   157.65729   180.00000     3.66616
     2.70000   156.97756   180.00000     3.67071   156.67015   180.00000     3.66407
     2.80000   156.00070   180.00000     3.66877   155.68041   180.00000     3.66193
     2.90000   154.96670   180.00000     3.66661   154.63280   180.00000     3.65962
     3.00000   153.92972   180.00000     3.66433   153.58219   180.00000     3.65727
     3.10000   152.88971   180.00000     3.66194   152.52854   180.00000     3.65488
     3.20000   151.79160   180.00000     3.65929   151.41608   180.00000     3.65232
     3.30000   150.69003   180.00000     3.65651   150.30017   180.00000     3.64973
     3.40000   149.52957   180.00000     3.65343   149.12471   180.00000     3.64699
     3.50000   148.36518   180.00000     3.65018   147.94539   180.00000     3.64422
     3.60000   147.19681   180.00000     3.64677   146.76222   180.00000     3.64143
     3.70000   145.96847   180.00000     3.64301   145.51854   180.00000     3.63850
     3.80000   144.67951   180.00000     3.63887   144.21380   180.00000     3.63544
     3.90000   143.32924   180.00000     3.63431   142.84744   180.00000     3.63225
     4.00000   141.97356   180.00000     3.62952   141.47615   180.00000     3.62907
     4.10000   140.55559   180.00000     3.62426   140.04254   180.00000     3.62579
     4.20000   139.07455   180.00000     3.61852   138.54608   180.00000     3.62242
     4.30000   137.52968   180.00000     3.61225   136.98626   180.00000     3.61898
     4.40000   135.86250   180.00000     3.60518   135.30449   180.00000     3.61535
     4.50000   134.12926   180.00000     3.59752   133.55802   180.00000     3.61170
     4.60000   132.32906   180.00000     3.58925   131.74644   180.00000     3.60803
     4.70000   130.34395   180.00000     3.57982   129.75188   180.00000     3.60416
     4.80000   128.22996   180.00000     3.56946   127.63179   180.00000     3.60025
     4.90000   125.98523   180.00000     3.55822   125.38539   180.00000     3.59634
     5.00000   123.42907   180.00000     3.54525   122.83374   180.00000     3.59221
     5.10000   120.67644   180.00000     3.53128   120.09385   180.00000     3.58815
     5.20000   117.48304   180.00000     3.51536   116.92555   180.00000     3.58394
     5.30000   113.72022   180.00000     3.49749   113.20609   180.00000     3.57967
     5.40000   109.07300   180.00000     3.47755   108.63134   180.00000     3.57539
     5.50000   102.47904   180.00000     3.45501   102.17010   180.00000     3.57107
     5.60000    90.00000   180.00000     3.43700    90.00000   180.00000     3.56795
     5.70000    90.00000   180.00000     3.43700    90.00000   180.00000     3.56795
     5.80000    90.00000   180.00000     3.43700    90.00000   180.00000     3.56794
     5.90000    90.00000   180.00000     3.43701    90.00000   180.00000     3.56793
     6.00000    90.00000   180.00000     3.43701    90.00000   180.00000     3.56793
     6.10000    90.00000   180.00000     3.43702    90.00000   180.00000     3.56792
     6.20000    90.00000   180.00000     3.43702    90.00000   180.00000     3.56791
     6.30000    90.00000   180.00000     3.43703    90.00000   180.00000     3.56791
     6.40000    90.00000   180.00000     3.43703    90.00000   180.00000     3.56790
     6.50000    90.00000   180.00000     3.43703    90.00000   180.00000     3.56789
     6.60000    90.00000   180.00000     3.43704    90.00000   180.00000     3.56789
     6.70000    90.00000   180.00000     3.43704    90.00000   180.00000     3.56788
     6.80000    90.00000   180.00000     3.43705    90.00000   180.00000     3.56787
     6.90000    90.00000   180.00000     3.43705    90.00000   180.00000     3.56787
     7.00000    90.00000   180.00000     3.43706    90.00000   180.00000     3.56786
     7.10000    90.00000   180.00000     3.43706    90.00000   180.00000     3.56785
     7.20000    90.00000   180.00000     3.43706    90.00000   180.00000     3.56785
     7.30000    90.00000   180.00000     3.43707    90.00000   180.00000     3.56784
     7.40000    90.00000   180.00000     3.43707    90.00000   180.00000     3.56783
     7.50000    90.00000   180.00000     3.43708    90.00000   180.00000     3.56783
     7.60000    90.00000   180.00000     3.43708    90.00000   180.00000     3.56782
     7.70000    90.00000   180.00000     3.43709    90.00000   180.00000     3.56781
     7.80000    90.00000   180.00000     3.43709    90.00000   180.00000     3.56781
     7.90000    90.00000   180.00000     3.43709    90.00000   180.00000     3.56780
     8.00000    90.00000   180.00000     3.43710    90.00000   180.00000     3.56779
     8.10000    90.00000   180.00000     3.43710    90.00000   180.00000     3.56778
     8.20000    90.00000   180.00000     3.43711    90.00000   180.00000     3.56778
     8.30000    90.00000   180.00000     3.43711    90.00000   180.00000     3.56777
     8.40000    90.00000   180.00000     3.43711    90.00000   180.00000     3.56776
     8.50000    90.00000   180.00000     3.43712    90.00000   180.00000     3.56776
     8.60000    90.00000   180.00000     3.43712    90.00000   180.00000     3.56775
     8.70000    90.00000   180.00000     3.43713    90.00000   180.00000     3.56774
     8.80000    90.00000   180.00000     3.43713    90.00000   180.00000     3.56773
     8.90000    90.00000   180.00000     3.43713    90.00000   180.00000     3.56773
     9.00000    90.00000   180.00000     3.43714    90.00000   180.00000     3.56772
     9.10000    90.00000   180.00000     3.43714    90.00000   180.00000     3.56771
     9.20000    90.00000   180.00000     3.43714    90.00000   180.00000     3.56771
     9.30000    90.00000   180.00000     3.43715    90.00000   180.00000     3.56770
     9.40000    90.00000   180.00000     3.43715    90.00000   180.00000     3.56769
     9.50000    90.00000   180.00000     3.43716    90.00000   180.00000     3.56768
     9.60000    90.00000   180.00000     3.43716    90.00000   180.00000     3.56768
     9.70000    90.00000   180.00000     3.43716    90.00000   180.00000     3.56767
     9.80000    90.00000   180.00000     3.43717    90.00000   180.00000     3.56766
     9.90000    90.00000   180.00000     3.43717    90.00000   180.00000     3.56765
    10.00000    90.00000   180.00000     3.43717    90.00000   180.00000     3.56765
    10.10000    90.00000   180.00000     3.43718    90.00000   180.00000     3.56764
    10.20000    90.00000   180.00000     3.43718    90.00000   180.00000     3.56763
    10.30000    90.00000   180.00000     3.43719    90.00000   180.00000     3.56763
    10.40000    90.00000   180.00000     3.43719    90.00000   180.00000     3.56762
    10.50000    90.00000   180.00000     3.43719    90.00000   180.00000     3.56761
    10.60000    90.00000   180.00000     3.43720    90.00000   180.00000     3.56760
    10.70000    90.00000   180.00000     3.43720    90.00000   180.00000     3.56760
    10.80000    90.00000   180.00000     3.43720    90.00000   180.00000     3.56759
    10.90000    90.00000   180.00000     3.43721    90.00000   180.00000     3.56758
    11.00000    90.00000   180.00000     3.43721    90.00000   180.00000     3.56757
    11.10000    90.00000   180.00000     3.43721    90.00000   180.00000     3.56756
    11.20000    90.00000   180.00000     3.43722    90.00000   180.00000     3.56756
    11.30000    90.00000   180.00000     3.43722    90.00000   180.00000     3.56755
    11.40000    90.00000   180.00000     3.43722    90.00000   180.00000     3.56754
    11.50000    90.00000   180.00000     3.43723    90.00000   180.00000     3.56753
    11.60000    90.00000   180.00000     3.43723    90.00000   180.00000     3.56753
    11.70000    90.00000   180.00000     3.43723    90.00000   180.00000     3.56752
    11.80000    90.00000   180.00000     3.43724    90.00000   180.00000     3.56751
    11.90000    90.00000   180.00000     3.43724    90.00000   180.00000     3.56750
    12.00000    90.00000   180.00000     3.43724    90.00000   180.00000     3.56750
    12.10000    90.00000   180.00000     3.43725    90.00000   180.00000     3.56749
    12.20000    90.00000   180.00000     3.43725    90.00000   180.00000     3.56748
    12.30000    90.00000   180.00000     3.43725    90.00000   180.00000     3.56747
    12.40000    90.00000   180.00000     3.43726    90.00000   180.00000     3.56746
    12.50000    90.00000   180.00000     3.43726    90.00000   180.00000     3.56746
    12.60000    90.00000   180.00000     3.43726    90.00000   180.00000     3.56745
    12.70000    90.00000   180.00000     3.43727    90.00000   180.00000     3.56744
    12.80000    90.00000   180.00000     3.43727    90.00000   180.00000     3.56743
    12.90000    90.00000   180.00000     3.43727    90.00000   180.00000     3.56742
    13.00000    90.00000   180.00000     3.43727    90.00000   180.00000     3.56742
    13.10000    90.00000   180.00000     3.43728    90.00000   180.00000     3.56741
    13.20000    90.00000   180.00000     3.43728    90.00000   180.00000     3.56740
    13.30000    90.00000   180.00000     3.43728    90.00000   180.00000     3.56739
    13.40000    90.00000   180.00000     3.43729    90.00000   180.00000     3.56738
    13.50000    90.00000   180.00000     3.43729    90.00000   180.00000     3.56738
    13.60000    90.00000   180.00000     3.43729    90.00000   180.00000     3.56737
    13.70000    90.00000   180.00000     3.43729    90.00000   180.00000     3.56736
    13.80000    90.00000   180.00000     3.43730    90.00000   180.00000     3.56735
    13.90000    90.00000   180.00000     3.43730    90.00000   180.00000     3.56734
    14.00000    90.00000   180.00000     3.43730    90.00000   180.00000     3.56734
    14.10000    90.00000   180.00000     3.43731    90.00000   180.00000     3.56733
    14.20000    90.00000   180.00000     3.43731    90.00000   180.00000     3.56732
    14.30000    90.00000   180.00000     3.43731    90.00000   180.00000     3.56731
    14.40000    90.00000   180.00000     3.43731    90.00000   180.00000     3.56730
    14.50000    90.00000   180.00000     3.43732    90.00000   180.00000     3.56729
    14.60000    90.00000   180.00000     3.43732    90.00000   180.00000     3.56729
    14.70000    90.00000   180.00000     3.43732    90.00000   180.00000     3.56728
    14.80000    90.00000   180.00000     3.43733    90.00000   180.00000     3.56727
    14.90000    90.00000   180.00000     3.43733    90.00000   180.00000     3.56726
    15.00000    90.00000   180.00000     3.43733    90.00000   180.00000     3.56725
    15.10000    90.00000   180.00000     3.43733    90.00000   180.00000     3.56724
    15.20000    90.00000   180.00000     3.43734    90.00000   180.00000     3.56724
    15.30000    90.00000   180.00000     3.43734    90.00000   180.00000     3.56723
    15.40000    90.00000   180.00000     3.43734    90.00000   180.00000     3.56722
    15.50000    90.00000   180.00000     3.43734    90.00000   180.00000     3.56721
    15.60000    90.00000   180.00000     3.43735    90.00000   180.00000     3.56720
    15.70000    90.00000   180.00000     3.43735    90.00000   180.00000     3.56719
    15.80000    90.00000   180.00000     3.43735    90.00000   180.00000     3.56719
    15.90000    90.00000   180.00000     3.43735    90.00000   180.00000     3.56718
    16.00000    90.00000   180.00000     3.43736    90.00000   180.00000     3.56717
    16.10000    90.00000   180.00000     3.43736    90.00000   180.00000     3.56716
    16.20000    90.00000   180.00000     3.43736    90.00000   180.00000     3.56715
    16.30000    90.00000   180.00000     3.43736    90.00000   180.00000     3.56714
    16.40000    90.00000   180.00000     3.43737    90.00000   180.00000     3.56713
    16.50000    90.00000   180.00000     3.43737    90.00000   180.00000     3.56713
    16.60000    90.00000   180.00000     3.43737    90.00000   180.00000     3.56712
    16.70000    90.00000   180.00000     3.43737    90.00000   180.00000     3.56711
    16.80000    90.00000   180.00000     3.43737    90.00000   180.00000     3.56710
    16.90000    90.00000   180.00000     3.43738    90.00000   180.00000     3.56709
    17.00000    90.00000   180.00000     3.43738    90.00000   180.00000     3.56708
    17.10000    90.00000   180.00000     3.43738    90.00000   180.00000     3.56707
    17.20000    90.00000   180.00000     3.43738    90.00000   180.00000     3.56706
    17.30000    90.00000   180.00000     3.43739    90.00000   180.00000     3.56706
    17.40000    90.00000   180.00000     3.43739    90.00000   180.00000     3.56705
    17.50000    90.00000   180.00000     3.43739    90.00000   180.00000     3.56704
    17.60000    90.00000   180.00000     3.43739    90.00000   180.00000     3.56703
    17.70000    90.00000   180.00000     3.43739    90.00000   180.00000     3.56702
    17.80000    90.00000   180.00000     3.43740    90.00000   180.00000     3.56701
    17.90000    90.00000   180.00000     3.43740    90.00000   180.00000     3.56700
    18.00000    90.00000   180.00000     3.43740    90.00000   180.00000     3.56699
    18.10000    90.00000   180.00000     3.43740    90.00000   180.00000     3.56698
    18.20000    90.00000   180.00000     3.43740    90.00000   180.00000     3.56698
    18.30000    90.00000   180.00000     3.43741    90.00000   180.00000     3.56697
    18.40000    90.00000   180.00000     3.43741    90.00000   180.00000     3.56696
    18.50000    90.00000   180.00000     3.43741    90.00000   180.00000     3.56695
    18.60000    90.00000   180.00000     3.43741    90.00000   180.00000     3.56694
    18.70000    90.00000   180.00000     3.43741    90.00000   180.00000     3.56693
    18.80000    90.00000   180.00000     3.43741    90.00000   180.00000     3.56692
    18.90000    90.00000   180.00000     3.43742    90.00000   180.00000     3.56691
    19.00000    90.00000   180.00000     3.43742    90.00000   180.00000     3.56690
    19.10000    90.00000   180.00000     3.43742    90.00000   180.00000     3.56689
    19.20000    90.00000   180.00000     3.43742    90.00000   180.00000     3.56688
    19.30000    90.00000   180.00000     3.43742    90.00000   180.00000     3.56688
    19.40000    90.00000   180.00000     3.43743    90.00000   180.00000     3.56687
    19.50000    90.00000   180.00000     3.43743    90.00000   180.00000     3.56686
    19.60000    90.00000   180.00000     3.43743    90.00000   180.00000     3.56685
    19.70000    90.00000   180.00000     3.43743    90.00000   180.00000     3.56684
    19.80000    90.00000   180.00000     3.43743    90.00000   180.00000     3.56683
    19.90000    90.00000   180.00000     3.43743    90.00000   180.00000     3.56682
    20.00000    90.00000   180.00000     3.43744    90.00000   180.00000     3.56681
    20.10000    90.00000   180.00000     3.43744    90.00000   180.00000     3.56680
    20.20000    90.00000   180.00000     3.43744    90.00000   180.00000     3.56679
    20.30000    90.00000   180.00000     3.43744    90.00000   180.00000     3.56678
    20.40000    90.00000   180.00000     3.43744    90.00000   180.00000     3.56677
    20.50000    90.00000   180.00000     3.43744    90.00000   180.00000     3.56676
    20.60000    90.00000   180.00000     3.43744    90.00000   180.00000     3.56675
    20.70000    90.00000   180.00000     3.43745    90.00000   180.00000     3.56674
    20.80000    90.00000   180.00000     3.43745    90.00000   180.00000     3.56674
    20.90000    90.00000   180.00000     3.43745    90.00000   180.00000     3.56673
    21.00000    90.00000   180.00000     3.43745    90.00000   180.00000     3.56672
    21.10000    90.00000   180.00000     3.43745    90.00000   180.00000     3.56671
    21.20000    90.00000   180.00000     3.43745    90.00000   180.00000     3.56670
    21.30000    90.00000   180.00000     3.43745    90.00000   180.00000     3.56669
    21.40000    90.00000   180.00000     3.43746    90.00000   180.00000     3.56668
    21.50000    90.00000   180.00000     3.43746    90.00000   180.00000     3.56667
    21.60000    90.00000   180.00000     3.43746    90.00000   180.00000     3.56666
    21.70000    90.00000   180.00000     3.43746    90.00000   180.00000     3.56665
    21.80000    90.00000   180.00000     3.43746    90.00000   180.00000     3.56664
    21.90000    90.00000   180.00000     3.43746    90.00000   180.00000     3.56663
    22.00000    90.00000   180.00000     3.43746    90.00000   180.00000     3.56662
    22.10000    90.00000   180.00000     3.43746    90.00000   180.00000     3.56661
    22.20000    90.00000   180.00000     3.43747    90.00000   180.00000     3.56660
    22.30000    90.00000   180.00000     3.43747    90.00000   180.00000     3.56659
    22.40000    90.00000   180.00000     3.43747    90.00000   180.00000     3.56658
    22.50000    90.00000   180.00000     3.43747    90.00000   180.00000     3.56657
    22.60000    90.00000   180.00000     3.43747    90.00000   180.00000     3.56656
    22.70000    90.00000   180.00000     3.43747    90.00000   180.00000     3.56655
    22.80000    90.00000   180.00000     3.43747    90.00000   180.00000     3.56654
    22.90000    90.00000   180.00000     3.43747    90.00000   180.00000     3.56653
    23.00000    90.00000   180.00000     3.43747    90.00000   180.00000     3.56652
    23.10000    90.00000   180.00000     3.43747    90.00000   180.00000     3.56651
    23.20000    90.00000   180.00000     3.43748    90.00000   180.00000     3.56650
    23.30000    90.00000   180.00000     3.43748    90.00000   180.00000     3.56649
    23.40000    90.00000   180.00000     3.43748    90.00000   180.00000     3.56648
    23.50000    90.00000   180.00000     3.43748    90.00000   180.00000     3.56647
    23.60000    90.00000   180.00000     3.43748    90.00000   180.00000     3.56646
    23.70000    90.00000   180.00000     3.43748    90.00000   180.00000     3.56645
    23.80000    90.00000   180.00000     3.43748    90.00000   180.00000     3.56644
    23.90000    90.00000   180.00000     3.43748    90.00000   180.00000     3.56643
    24.00000    90.00000   180.00000     3.43748    90.00000   180.00000     3.56642
    24.10000    90.00000   180.00000     3.43748    90.00000   180.00000     3.56641
    24.20000    90.00000   180.00000     3.43748    90.00000   180.00000     3.56640
    24.30000    90.00000   180.00000     3.43748    90.00000   180.00000     3.56639
    24.40000    90.00000   180.00000     3.43748    90.00000   180.00000     3.56638
    24.50000    90.00000   180.00000     3.43749    90.00000   180.00000     3.56637
    24.60000    90.00000   180.00000     3.43749    90.00000   180.00000     3.56636
    24.70000    90.00000   180.00000     3.43749    90.00000   180.00000     3.56635
    24.80000    90.00000   180.00000     3.43749    90.00000   180.00000     3.56634
    24.90000    90.00000   180.00000     3.43749    90.00000   180.00000     3.56633
    25.00000    90.00000   180.00000     3.43749    90.00000   180.00000     3.56632
    25.10000    90.00000   180.00000     3.43749    90.00000   180.00000     3.56631
    25.20000    90.00000   180.00000     3.43749    90.00000   180.00000     3.56630
    25.30000    90.00000   180.00000     3.43749    90.00000   180.00000     3.56629
    25.40000    90.00000   180.00000     3.43749    90.00000   180.00000     3.56628
    25.50000    90.00000   180.00000     3.43749    90.00000   180.00000     3.56627
    25.60000    90.00000   180.00000     3.43749    90.00000   180.00000     3.56626
    25.70000    90.00000   180.00000     3.43749    90.00000   180.00000     3.56625
    25.80000    90.00000   180.00000     3.43749    90.00000   180.00000     3.56624
    25.90000    90.00000   180.00000     3.43749    90.00000   180.00000     3.56623
    26.00000    90.00000   180.00000     3.43749    90.00000   180.00000     3.56622
    26.10000    90.00000   180.00000     3.43749    90.00000   180.00000     3.56621
    26.20000    90.00000   180.00000     3.43749    90.00000   180.00000     3.56619
    26.30000    90.00000   180.00000     3.43749    90.00000   180.00000     3.56618
    26.40000    90.00000   180.00000     3.43749    90.00000   180.00000     3.56617
    26.50000    90.00000   180.00000     3.43749    90.00000   180.00000     3.56616
    26.60000    90.00000   180.00000     3.43749    90.00000   180.00000     3.56615
    26.70000    90.00000   180.00000     3.43750    90.00000   180.00000     3.56614
    26.80000    90.00000   180.00000     3.43750    90.00000   180.00000     3.56613
    26.90000    90.00000   180.00000     3.43750    90.00000   180.00000     3.56612
    27.00000    90.00000   180.00000     3.43750    90.00000   180.00000     3.56611
    27.10000    90.00000   180.00000     3.43750    90.00000   180.00000     3.56610
    27.20000    90.00000   180.00000     3.43750    90.00000   180.00000     3.56609
    27.30000    90.00000   180.00000     3.43750    90.00000   180.00000     3.56608
    27.40000    90.00000   180.00000     3.43750    90.00000   180.00000     3.56607
    27.50000    90.00000   180.00000     3.43750    90.00000   180.00000     3.56606
    27.60000    90.00000   180.00000     3.43750    90.00000   180.00000     3.56605
    27.70000    90.00000   180.00000     3.43750    90.00000   180.00000     3.56603
    27.80000    90.00000   180.00000     3.43750    90.00000   180.00000     3.56602
    27.90000    90.00000   180.00000     3.43750    90.00000   180.00000     3.56601
    28.00000    90.00000   180.00000     3.43750    90.00000   180.00000     3.56600
    28.10000    90.00000   180.00000     3.43750    90.00000   180.00000     3.56599
    28.20000    90.00000   180.00000     3.43750    90.00000   180.00000     3.56598
    28.30000    90.00000   180.00000     3.43750    90.00000   180.00000     3.56597
    28.40000    90.00000   180.00000     3.43750    90.00000   180.00000     3.56596
    28.50000    90.00000   180.00000     3.43750    90.00000   180.00000     3.56595
    28.60000    90.00000   180.00000     3.43750    90.00000   180.00000     3.56594
    28.70000    90.00000   180.00000     3.43750    90.00000   180.00000     3.56593
    28.80000    90.00000   180.00000     3.43749    90.00000   180.00000     3.56591
    28.90000    90.00000   180.00000     3.43749    90.00000   180.00000     3.56590
    29.00000    90.00000   180.00000     3.43749    90.00000   180.00000     3.56589
    29.10000    90.00000   180.00000     3.43749    90.00000   180.00000     3.56588
    29.20000    90.00000   180.00000     3.43749    90.00000   180.00000     3.56587
    29.30000    90.00000   180.00000     3.43749    90.00000   180.00000     3.56586
    29.40000    90.00000   180.00000     3.43749    90.00000   180.00000     3.56585
    29.50000    90.00000   180.00000     3.43749    90.00000   180.00000     3.56584
    29.60000    90.00000   180.00000     3.43749    90.00000   180.00000     3.56583
    29.70000    90.00000   180.00000     3.43749    90.00000   180.00000     3.56581
    29.80000    90.00000   180.00000     3.43749    90.00000   180.00000     3.56580
    29.90000    90.00000   180.00000     3.43749    90.00000   180.00000     3.56579
    30.00000    90.00000   180.00000     3.43749    90.00000   180.00000     3.56578
    30.10000    90.00000   180.00000     3.43749    90.00000   180.00000     3.56577
    30.20000    90.00000   180.00000     3.43749    90.00000   180.00000     3.56576
    30.30000    90.00000   180.00000     3.43749    90.00000   180.00000     3.56575
    30.40000    90.00000   180.00000     3.43749    90.00000   180.00000     3.56573
    30.50000    90.00000   180.00000     3.43749    90.00000   180.00000     3.56572
    30.60000    90.00000   180.00000     3.43749    90.00000   180.00000     3.56571
    30.70000    90.00000   180.00000     3.43749    90.00000   180.00000     3.56570
    30.80000    90.00000   180.00000     3.43749    90.00000   180.00000     3.56569
    30.90000    90.00000   180.00000     3.43749    90.00000   180.00000     3.56568
    31.00000    90.00000   180.00000     3.43748    90.00000   180.00000     3.56567
    31.10000    90.00000   180.00000     3.43748    90.00000   180.00000     3.56565
    31.20000    90.00000   180.00000     3.43748    90.00000   180.00000     3.56564
    31.30000    90.00000   180.00000     3.43748    90.00000   180.00000     3.56563
    31.40000    90.00000   180.00000     3.43748    90.00000   180.00000     3.56562
    31.50000    90.00000   180.00000     3.43748    90.00000   180.00000     3.56561
    31.60000    90.00000   180.00000     3.43748    90.00000   180.00000     3.56560
    31.70000    90.00000   180.00000     3.43748    90.00000   180.00000     3.56559
    31.80000    90.00000   180.00000     3.43748    90.00000   180.00000     3.56557
    31.90000    90.00000   180.00000     3.43748    90.00000   180.00000     3.56556
    32.00000    90.00000   180.00000     3.43748    90.00000   180.00000     3.56555
    32.10000    90.00000   180.00000     3.43748    90.00000   180.00000     3.56554
    32.20000    90.00000   180.00000     3.43748    90.00000   180.00000     3.56553
    32.30000    90.00000   180.00000     3.43747    90.00000   180.00000     3.56552
    32.40000    90.00000   180.00000     3.43747    90.00000   180.00000     3.56550
    32.50000    90.00000   180.00000     3.43747    90.00000   180.00000     3.56549
    32.60000    90.00000   180.00000     3.43747    90.00000   180.00000     3.56548
    32.70000    90.00000   180.00000     3.43747    90.00000   180.00000     3.56547
    32.80000    90.00000   180.00000     3.43747    90.00000   180.00000     3.56546
    32.90000    90.00000   180.00000     3.43747    90.00000   180.00000     3.56544
    33.00000    90.00000   180.00000     3.43747    90.00000   180.00000     3.56543
    33.10000    90.00000   180.00000     3.43747    90.00000   180.00000     3.56542
    33.20000    90.00000   180.00000     3.43747    90.00000   180.00000     3.56541
    33.30000    90.00000   180.00000     3.43746    90.00000   180.00000     3.56540
    33.40000    90.00000   180.00000     3.43746    90.00000   180.00000     3.56539
    33.50000    90.00000   180.00000     3.43746    90.00000   180.00000     3.56537
    33.60000    90.00000   180.00000     3.43746    90.00000   180.00000     3.56536
    33.70000    90.00000   180.00000     3.43746    90.00000   180.00000     3.56535
    33.80000    90.00000   180.00000     3.43746    90.00000   180.00000     3.56534
    33.90000    90.00000   180.00000     3.43746    90.00000   180.00000     3.56533
    34.00000    90.00000   180.00000     3.43746    90.00000   180.00000     3.56531
    34.10000    90.00000   180.00000     3.43745    90.00000   180.00000     3.56530
    34.20000    90.00000   180.00000     3.43745    90.00000   180.00000     3.56529
    34.30000    90.00000   180.00000     3.43745    90.00000   180.00000     3.56528
    34.40000    90.00000   180.00000     3.43745    90.00000   180.00000     3.56526
    34.50000    90.00000   180.00000     3.43745    90.00000   180.00000     3.56525
    34.60000    90.00000   180.00000     3.43745    90.00000   180.00000     3.56524
    34.70000    90.00000   180.00000     3.43745    90.00000   180.00000     3.56523
    34.80000    90.00000   180.00000     3.43744    90.00000   180.00000     3.56522
    34.90000    90.00000   180.00000     3.43744    90.00000   180.00000     3.56520
    35.00000    90.00000   180.00000     3.43744    90.00000   180.00000     3.56519
    35.10000    90.00000   180.00000     3.43744    90.00000   180.00000     3.56518
    35.20000    90.00000   180.00000     3.43744    90.00000   180.00000     3.56517
    35.30000    90.00000   180.00000     3.43744    90.00000   180.00000     3.56515
    35.40000    90.00000   180.00000     3.43744    90.00000   180.00000     3.56514
    35.50000    90.00000   180.00000     3.43743    90.00000   180.00000     3.56513
    35.60000    90.00000   180.00000     3.43743    90.00000   180.00000     3.56512
    35.70000    90.00000   180.00000     3.43743    90.00000   180.00000     3.56511
    35.80000    90.00000   180.00000     3.43743    90.00000   180.00000     3.56509
    35.90000    90.00000   180.00000     3.43743    90.00000   180.00000     3.56508
    36.00000    90.00000   180.00000     3.43743    90.00000   180.00000     3.56507
    36.10000    90.00000   180.00000     3.43742    90.00000   180.00000     3.56506
    36.20000    90.00000   180.00000     3.43742    90.00000   180.00000     3.56504
    36.30000    90.00000   180.00000     3.43742    90.00000   180.00000     3.56503
    36.40000    90.00000   180.00000     3.43742    90.00000   180.00000     3.56502
    36.50000    90.00000   180.00000     3.43742    90.00000   180.00000     3.56501
    36.60000    90.00000   180.00000     3.43741    90.00000   180.00000     3.56499
    36.70000    90.00000   180.00000     3.43741    90.00000   180.00000     3.56498
    36.80000    90.00000   180.00000     3.43741    90.00000   180.00000     3.56497
    36.90000    90.00000   180.00000     3.43741    90.00000   180.00000     3.56496
    37.00000    90.00000   180.00000     3.43741    90.00000   180.00000     3.56494
    37.10000    90.00000   180.00000     3.43741    90.00000   180.00000     3.56493
    37.20000    90.00000   180.00000     3.43740    90.00000   180.00000     3.56492
    37.30000    90.00000   180.00000     3.43740    90.00000   180.00000     3.56490
    37.40000    90.00000   180.00000     3.43740    90.00000   180.00000     3.56489
    37.50000    90.00000   180.00000     3.43740    90.00000   180.00000     3.56488
    37.60000    90.00000   180.00000     3.43740    90.00000   180.00000     3.56487
    37.70000    90.00000   180.00000     3.43739    90.00000   180.00000     3.56485
    37.80000    90.00000   180.00000     3.43739    90.00000   180.00000     3.56484
    37.90000    90.00000   180.00000     3.43739    90.00000   180.00000     3.56483
    38.00000    90.00000   180.00000     3.43739    90.00000   180.00000     3.56482
    38.10000    90.00000   180.00000     3.43739    90.00000   180.00000     3.56480
    38.20000    90.00000   180.00000     3.43738    90.00000   180.00000     3.56479
    38.30000    90.00000   180.00000     3.43738    90.00000   180.00000     3.56478
    38.40000    90.00000   180.00000     3.43738    90.00000   180.00000     3.56476
    38.50000    90.00000   180.00000     3.43738    90.00000   180.00000     3.56475
    38.60000    90.00000   180.00000     3.43737    90.00000   180.00000     3.56474
    38.70000    90.00000   180.00000     3.43737    90.00000   180.00000     3.56472
    38.80000    90.00000   180.00000     3.43737    90.00000   180.00000     3.56471
    38.90000    90.00000   180.00000     3.43737    90.00000   180.00000     3.56470
    39.00000    90.00000   180.00000     3.43737    90.00000   180.00000     3.56469
    39.10000    90.00000   180.00000     3.43736    90.00000   180.00000     3.56467
    39.20000    90.00000   180.00000     3.43736    90.00000   180.00000     3.56466
    39.30000    90.00000   180.00000     3.43736    90.00000   180.00000     3.56465
    39.40000    90.00000   180.00000     3.43736    90.00000   180.00000     3.56463
    39.50000    90.00000   180.00000     3.43735    90.00000   180.00000     3.56462
    39.60000    90.00000   180.00000     3.43735    90.00000   180.00000     3.56461
    39.70000    90.00000   180.00000     3.43735    90.00000   180.00000     3.56459
    39.80000    90.00000   180.00000     3.43735    90.00000   180.00000     3.56458
    39.90000    90.00000   180.00000     3.43734    90.00000   180.00000     3.56457
    40.00000    90.00000   180.00000     3.43734    90.00000   180.00000     3.56455
