 # applied field (T), theta (degree), phi (degree), abs
     0.00000    90.00000    45.42857    36.54732
     0.10000    90.00000     0.00000    36.54732
     0.20000    90.00000     0.00000    36.54732
     0.30000    90.00000     0.00000    36.54732
     0.40000    90.00000     0.00000    36.54732
     0.50000    90.00000     0.00000    36.54732
     0.60000    90.00000     0.00000    36.54732
     0.70000    90.00000     0.00000    36.54732
     0.80000    90.00000     0.00000    36.54732
     0.90000    90.00000     0.00000    36.54732
     1.00000    90.00000     0.00000    36.54732
     1.10000    90.00000     0.00000    36.54732
     1.20000    90.00000     0.00000    36.54732
     1.30000    90.00000     0.00000    36.54732
     1.40000    90.00000     0.00000    36.54732
     1.50000    90.00000     0.00000    36.54732
     1.60000    90.00000     0.00000    36.54732
     1.70000    90.00000     0.00000    36.54732
     1.80000    90.00000     0.00000    36.54732
     1.90000    90.00000     0.00000    36.54732
     2.00000    90.00000     0.00000    36.54732
     2.10000    90.00000     0.00000    36.54732
     2.20000    90.00000     0.00000    36.54732
     2.30000    90.00000     0.00000    36.54732
     2.40000    90.00000     0.00000    36.54732
     2.50000    90.00000     0.00000    36.54732
     2.60000    90.00000     0.00000    36.54732
     2.70000    90.00000     0.00000    36.54732
     2.80000    90.00000     0.00000    36.54732
     2.90000    90.00000     0.00000    36.54732
     3.00000    90.00000     0.00000    36.54732
     3.10000    90.00000     0.00000    36.54732
     3.20000    90.00000     0.00000    36.54732
     3.30000    90.00000     0.00000    36.54732
     3.40000    90.00000     0.00000    36.54732
     3.50000    90.00000     0.00000    36.54732
     3.60000    90.00000     0.00000    36.54732
     3.70000    90.00000     0.00000    36.54732
     3.80000    90.00000     0.00000    36.54732
     3.90000    90.00000     0.00000    36.54732
     4.00000    90.00000     0.00000    36.54732
     4.10000    90.00000     0.00000    36.54732
     4.20000    90.00000     0.00000    36.54732
     4.30000    90.00000     0.00000    36.54732
     4.40000    90.00000     0.00000    36.54732
     4.50000    90.00000     0.00000    36.54732
     4.60000    90.00000     0.00000    36.54732
     4.70000    90.00000     0.00000    36.54732
     4.80000    90.00000     0.00000    36.54732
     4.90000    90.00000     0.00000    36.54732
     5.00000    90.00000     0.00000    36.54732
     5.10000    90.00000     0.00000    36.54732
     5.20000    90.00000     0.00000    36.54732
     5.30000    90.00000     0.00000    36.54732
     5.40000    90.00000     0.00000    36.54732
     5.50000    90.00000     0.00000    36.54732
     5.60000    90.00000     0.00000    36.54732
     5.70000    90.00000     0.00000    36.54732
     5.80000    90.00000     0.00000    36.54732
     5.90000    90.00000     0.00000    36.54732
     6.00000    90.00000     0.00000    36.54732
     6.10000    90.00000     0.00000    36.54732
     6.20000    90.00000     0.00000    36.54732
     6.30000    90.00000     0.00000    36.54732
     6.40000    90.00000     0.00000    36.54732
     6.50000    90.00000     0.00000    36.54732
     6.60000    90.00000     0.00000    36.54732
     6.70000    90.00000     0.00000    36.54732
     6.80000    90.00000     0.00000    36.54732
     6.90000    90.00000     0.00000    36.54732
     7.00000    90.00000     0.00000    36.54732
     7.10000    90.00000     0.00000    36.54732
     7.20000    90.00000     0.00000    36.54732
     7.30000    90.00000     0.00000    36.54732
     7.40000    90.00000     0.00000    36.54732
     7.50000    90.00000     0.00000    36.54732
     7.60000    90.00000     0.00000    36.54732
     7.70000    90.00000     0.00000    36.54732
     7.80000    90.00000     0.00000    36.54732
     7.90000    90.00000     0.00000    36.54732
     8.00000    90.00000     0.00000    36.54732
     8.10000    90.00000     0.00000    36.54732
     8.20000    90.00000     0.00000    36.54732
     8.30000    90.00000     0.00000    36.54732
     8.40000    90.00000     0.00000    36.54732
     8.50000    90.00000     0.00000    36.54732
     8.60000    90.00000     0.00000    36.54732
     8.70000    90.00000     0.00000    36.54732
     8.80000    90.00000     0.00000    36.54732
     8.90000    90.00000     0.00000    36.54732
     9.00000    90.00000     0.00000    36.54732
     9.10000    90.00000     0.00000    36.54732
     9.20000    90.00000     0.00000    36.54732
     9.30000    90.00000     0.00000    36.54732
     9.40000    90.00000     0.00000    36.54732
     9.50000    90.00000     0.00000    36.54732
     9.60000    90.00000     0.00000    36.54732
     9.70000    90.00000     0.00000    36.54732
     9.80000    90.00000     0.00000    36.54732
     9.90000    90.00000     0.00000    36.54732
    10.00000    90.00000     0.00000    36.54732
    10.10000    90.00000     0.00000    36.54732
    10.20000    90.00000     0.00000    36.54732
    10.30000    90.00000     0.00000    36.54732
    10.40000    90.00000     0.00000    36.54732
    10.50000    90.00000     0.00000    36.54732
    10.60000    90.00000     0.00000    36.54732
    10.70000    90.00000     0.00000    36.54732
    10.80000    90.00000     0.00000    36.54732
    10.90000    90.00000     0.00000    36.54732
    11.00000    90.00000     0.00000    36.54732
    11.10000    90.00000     0.00000    36.54732
    11.20000    90.00000     0.00000    36.54732
    11.30000    90.00000     0.00000    36.54732
    11.40000    90.00000     0.00000    36.54732
    11.50000    90.00000     0.00000    36.54732
    11.60000    90.00000     0.00000    36.54732
    11.70000    90.00000     0.00000    36.54732
    11.80000    90.00000     0.00000    36.54732
    11.90000    90.00000     0.00000    36.54732
    12.00000    90.00000     0.00000    36.54732
    12.10000    90.00000     0.00000    36.54732
    12.20000    90.00000     0.00000    36.54732
    12.30000    90.00000     0.00000    36.54732
    12.40000    90.00000     0.00000    36.54732
    12.50000    90.00000     0.00000    36.54732
    12.60000    90.00000     0.00000    36.54732
    12.70000    90.00000     0.00000    36.54732
    12.80000    90.00000     0.00000    36.54732
    12.90000    90.00000     0.00000    36.54732
    13.00000    90.00000     0.00000    36.54732
    13.10000    90.00000     0.00000    36.54732
    13.20000    90.00000     0.00000    36.54732
    13.30000    90.00000     0.00000    36.54732
    13.40000    90.00000     0.00000    36.54732
    13.50000    90.00000     0.00000    36.54732
    13.60000    90.00000     0.00000    36.54732
    13.70000    90.00000     0.00000    36.54732
    13.80000    90.00000     0.00000    36.54732
    13.90000    90.00000     0.00000    36.54732
    14.00000    90.00000     0.00000    36.54732
    14.10000    90.00000     0.00000    36.54732
    14.20000    90.00000     0.00000    36.54732
    14.30000    90.00000     0.00000    36.54732
    14.40000    90.00000     0.00000    36.54732
    14.50000    90.00000     0.00000    36.54732
    14.60000    90.00000     0.00000    36.54732
    14.70000    90.00000     0.00000    36.54732
    14.80000    90.00000     0.00000    36.54732
    14.90000    90.00000     0.00000    36.54732
    15.00000    90.00000     0.00000    36.54732
    15.10000    90.00000     0.00000    36.54732
    15.20000    90.00000     0.00000    36.54732
    15.30000    90.00000     0.00000    36.54732
    15.40000    90.00000     0.00000    36.54732
    15.50000    90.00000     0.00000    36.54732
    15.60000    90.00000     0.00000    36.54732
    15.70000    90.00000     0.00000    36.54732
    15.80000    90.00000     0.00000    36.54732
    15.90000    90.00000     0.00000    36.54732
    16.00000    90.00000     0.00000    36.54732
    16.10000    90.00000     0.00000    36.54732
    16.20000    90.00000     0.00000    36.54732
    16.30000    90.00000     0.00000    36.54732
    16.40000    90.00000     0.00000    36.54732
    16.50000    90.00000     0.00000    36.54732
    16.60000    90.00000     0.00000    36.54732
    16.70000    90.00000     0.00000    36.54732
    16.80000    90.00000     0.00000    36.54732
    16.90000    90.00000     0.00000    36.54732
    17.00000    90.00000     0.00000    36.54732
    17.10000    90.00000     0.00000    36.54732
    17.20000    90.00000     0.00000    36.54732
    17.30000    90.00000     0.00000    36.54732
    17.40000    90.00000     0.00000    36.54732
    17.50000    90.00000     0.00000    36.54732
    17.60000    90.00000     0.00000    36.54732
    17.70000    90.00000     0.00000    36.54732
    17.80000    90.00000     0.00000    36.54732
    17.90000    90.00000     0.00000    36.54732
    18.00000    90.00000     0.00000    36.54732
    18.10000    90.00000     0.00000    36.54732
    18.20000    90.00000     0.00000    36.54732
    18.30000    90.00000     0.00000    36.54732
    18.40000    90.00000     0.00000    36.54732
    18.50000    90.00000     0.00000    36.54732
    18.60000    90.00000     0.00000    36.54732
    18.70000    90.00000     0.00000    36.54732
    18.80000    90.00000     0.00000    36.54732
    18.90000    90.00000     0.00000    36.54732
    19.00000    90.00000     0.00000    36.54732
    19.10000    90.00000     0.00000    36.54732
    19.20000    90.00000     0.00000    36.54732
    19.30000    90.00000     0.00000    36.54732
    19.40000    90.00000     0.00000    36.54732
    19.50000    90.00000     0.00000    36.54732
    19.60000    90.00000     0.00000    36.54732
    19.70000    90.00000     0.00000    36.54732
    19.80000    90.00000     0.00000    36.54732
    19.90000    90.00000     0.00000    36.54732
    20.00000    90.00000     0.00000    36.54732
    20.10000    90.00000     0.00000    36.54732
    20.20000    90.00000     0.00000    36.54732
    20.30000    90.00000     0.00000    36.54732
    20.40000    90.00000     0.00000    36.54732
    20.50000    90.00000     0.00000    36.54732
    20.60000    90.00000     0.00000    36.54732
    20.70000    90.00000     0.00000    36.54732
    20.80000    90.00000     0.00000    36.54732
    20.90000    90.00000     0.00000    36.54732
    21.00000    90.00000     0.00000    36.54732
    21.10000    90.00000     0.00000    36.54732
    21.20000    90.00000     0.00000    36.54732
    21.30000    90.00000     0.00000    36.54732
    21.40000    90.00000     0.00000    36.54732
    21.50000    90.00000     0.00000    36.54732
    21.60000    90.00000     0.00000    36.54732
    21.70000    90.00000     0.00000    36.54732
    21.80000    90.00000     0.00000    36.54732
    21.90000    90.00000     0.00000    36.54732
    22.00000    90.00000     0.00000    36.54732
    22.10000    90.00000     0.00000    36.54732
    22.20000    90.00000     0.00000    36.54732
    22.30000    90.00000     0.00000    36.54732
    22.40000    90.00000     0.00000    36.54732
    22.50000    90.00000     0.00000    36.54732
    22.60000    90.00000     0.00000    36.54732
    22.70000    90.00000     0.00000    36.54732
    22.80000    90.00000     0.00000    36.54732
    22.90000    90.00000     0.00000    36.54732
    23.00000    90.00000     0.00000    36.54732
    23.10000    90.00000     0.00000    36.54732
    23.20000    90.00000     0.00000    36.54732
    23.30000    90.00000     0.00000    36.54732
    23.40000    90.00000     0.00000    36.54732
    23.50000    90.00000     0.00000    36.54732
    23.60000    90.00000     0.00000    36.54732
    23.70000    90.00000     0.00000    36.54732
    23.80000    90.00000     0.00000    36.54732
    23.90000    90.00000     0.00000    36.54732
    24.00000    90.00000     0.00000    36.54732
    24.10000    90.00000     0.00000    36.54732
    24.20000    90.00000     0.00000    36.54732
    24.30000    90.00000     0.00000    36.54732
    24.40000    90.00000     0.00000    36.54732
    24.50000    90.00000     0.00000    36.54732
    24.60000    90.00000     0.00000    36.54732
    24.70000    90.00000     0.00000    36.54732
    24.80000    90.00000     0.00000    36.54732
    24.90000    90.00000     0.00000    36.54732
    25.00000    90.00000     0.00000    36.54732
    25.10000    90.00000     0.00000    36.54732
    25.20000    90.00000     0.00000    36.54732
    25.30000    90.00000     0.00000    36.54732
    25.40000    90.00000     0.00000    36.54732
    25.50000    90.00000     0.00000    36.54732
    25.60000    90.00000     0.00000    36.54732
    25.70000    90.00000     0.00000    36.54732
    25.80000    90.00000     0.00000    36.54732
    25.90000    90.00000     0.00000    36.54732
    26.00000    90.00000     0.00000    36.54732
    26.10000    90.00000     0.00000    36.54732
    26.20000    90.00000     0.00000    36.54732
    26.30000    90.00000     0.00000    36.54732
    26.40000    90.00000     0.00000    36.54732
    26.50000    90.00000     0.00000    36.54732
    26.60000    90.00000     0.00000    36.54732
    26.70000    90.00000     0.00000    36.54732
    26.80000    90.00000     0.00000    36.54732
    26.90000    90.00000     0.00000    36.54732
    27.00000    90.00000     0.00000    36.54732
    27.10000    90.00000     0.00000    36.54732
    27.20000    90.00000     0.00000    36.54732
    27.30000    90.00000     0.00000    36.54732
    27.40000    90.00000     0.00000    36.54732
    27.50000    90.00000     0.00000    36.54732
    27.60000    90.00000     0.00000    36.54732
    27.70000    90.00000     0.00000    36.54732
    27.80000    90.00000     0.00000    36.54732
    27.90000    90.00000     0.00000    36.54732
    28.00000    90.00000     0.00000    36.54732
    28.10000    90.00000     0.00000    36.54732
    28.20000    90.00000     0.00000    36.54732
    28.30000    90.00000     0.00000    36.54732
    28.40000    90.00000     0.00000    36.54732
    28.50000    90.00000     0.00000    36.54732
    28.60000    90.00000     0.00000    36.54732
    28.70000    90.00000     0.00000    36.54732
    28.80000    90.00000     0.00000    36.54732
    28.90000    90.00000     0.00000    36.54732
    29.00000    90.00000     0.00000    36.54732
    29.10000    90.00000     0.00000    36.54732
    29.20000    90.00000     0.00000    36.54732
    29.30000    90.00000     0.00000    36.54732
    29.40000    90.00000     0.00000    36.54732
    29.50000    90.00000     0.00000    36.54732
    29.60000    90.00000     0.00000    36.54732
    29.70000    90.00000     0.00000    36.54732
    29.80000    90.00000     0.00000    36.54732
    29.90000    90.00000     0.00000    36.54732
    30.00000    90.00000     0.00000    36.54732
    30.10000    90.00000     0.00000    36.54732
    30.20000    90.00000     0.00000    36.54732
    30.30000    90.00000     0.00000    36.54732
    30.40000    90.00000     0.00000    36.54732
    30.50000    90.00000     0.00000    36.54732
    30.60000    90.00000     0.00000    36.54732
    30.70000    90.00000     0.00000    36.54732
    30.80000    90.00000     0.00000    36.54732
    30.90000    90.00000     0.00000    36.54732
    31.00000    90.00000     0.00000    36.54732
    31.10000    90.00000     0.00000    36.54732
    31.20000    90.00000     0.00000    36.54732
    31.30000    90.00000     0.00000    36.54732
    31.40000    90.00000     0.00000    36.54732
    31.50000    90.00000     0.00000    36.54732
    31.60000    90.00000     0.00000    36.54732
    31.70000    90.00000     0.00000    36.54732
    31.80000    90.00000     0.00000    36.54732
    31.90000    90.00000     0.00000    36.54732
    32.00000    90.00000     0.00000    36.54732
    32.10000    90.00000     0.00000    36.54732
    32.20000    90.00000     0.00000    36.54732
    32.30000    90.00000     0.00000    36.54732
    32.40000    90.00000     0.00000    36.54732
    32.50000    90.00000     0.00000    36.54732
    32.60000    90.00000     0.00000    36.54732
    32.70000    90.00000     0.00000    36.54732
    32.80000    90.00000     0.00000    36.54732
    32.90000    90.00000     0.00000    36.54732
    33.00000    90.00000     0.00000    36.54732
    33.10000    90.00000     0.00000    36.54732
    33.20000    90.00000     0.00000    36.54732
    33.30000    90.00000     0.00000    36.54732
    33.40000    90.00000     0.00000    36.54732
    33.50000    90.00000     0.00000    36.54732
    33.60000    90.00000     0.00000    36.54732
    33.70000    90.00000     0.00000    36.54732
    33.80000    90.00000     0.00000    36.54732
    33.90000    90.00000     0.00000    36.54732
    34.00000    90.00000     0.00000    36.54732
    34.10000    90.00000     0.00000    36.54732
    34.20000    90.00000     0.00000    36.54732
    34.30000    90.00000     0.00000    36.54732
    34.40000    90.00000     0.00000    36.54732
    34.50000    90.00000     0.00000    36.54732
    34.60000    90.00000     0.00000    36.54732
    34.70000    90.00000     0.00000    36.54732
    34.80000    90.00000     0.00000    36.54732
    34.90000    90.00000     0.00000    36.54732
    35.00000    90.00000     0.00000    36.54732
    35.10000    90.00000     0.00000    36.54732
    35.20000    90.00000     0.00000    36.54732
    35.30000    90.00000     0.00000    36.54732
    35.40000    90.00000     0.00000    36.54732
    35.50000    90.00000     0.00000    36.54732
    35.60000    90.00000     0.00000    36.54732
    35.70000    90.00000     0.00000    36.54732
    35.80000    90.00000     0.00000    36.54732
    35.90000    90.00000     0.00000    36.54732
    36.00000    90.00000     0.00000    36.54732
    36.10000    90.00000     0.00000    36.54732
    36.20000    90.00000     0.00000    36.54732
    36.30000    90.00000     0.00000    36.54732
    36.40000    90.00000     0.00000    36.54732
    36.50000    90.00000     0.00000    36.54732
    36.60000    90.00000     0.00000    36.54732
    36.70000    90.00000     0.00000    36.54732
    36.80000    90.00000     0.00000    36.54732
    36.90000    90.00000     0.00000    36.54732
    37.00000    90.00000     0.00000    36.54732
    37.10000    90.00000     0.00000    36.54732
    37.20000    90.00000     0.00000    36.54732
    37.30000    90.00000     0.00000    36.54732
    37.40000    90.00000     0.00000    36.54732
    37.50000    90.00000     0.00000    36.54732
    37.60000    90.00000     0.00000    36.54732
    37.70000    90.00000     0.00000    36.54732
    37.80000    90.00000     0.00000    36.54732
    37.90000    90.00000     0.00000    36.54732
    38.00000    90.00000     0.00000    36.54732
    38.10000    90.00000     0.00000    36.54732
    38.20000    90.00000     0.00000    36.54732
    38.30000    90.00000     0.00000    36.54732
    38.40000    90.00000     0.00000    36.54732
    38.50000    90.00000     0.00000    36.54732
    38.60000    90.00000     0.00000    36.54732
    38.70000    90.00000     0.00000    36.54732
    38.80000    90.00000     0.00000    36.54732
    38.90000    90.00000     0.00000    36.54732
    39.00000    90.00000     0.00000    36.54732
    39.10000    90.00000     0.00000    36.54732
    39.20000    90.00000     0.00000    36.54732
    39.30000    90.00000     0.00000    36.54732
    39.40000    90.00000     0.00000    36.54732
    39.50000    90.00000     0.00000    36.54732
    39.60000    90.00000     0.00000    36.54732
    39.70000    90.00000     0.00000    36.54732
    39.80000    90.00000     0.00000    36.54732
    39.90000    90.00000     0.00000    36.54732
    40.00000    90.00000     0.00000    36.54732
