 # applied field (T), theta (degree), phi (degree), abs for RE 1-2
     0.00000    90.00000   225.42310     4.37964    90.00000   225.42310     4.37964
     0.10000    90.00000   221.19097     4.37953    90.00000   221.19097     4.37953
     0.20000    90.00000   217.80241     4.37931    90.00000   217.80241     4.37931
     0.30000    90.00000   214.40897     4.37899    90.00000   214.40897     4.37899
     0.40000    90.00000   211.00864     4.37857    90.00000   211.00864     4.37857
     0.50000    90.00000   207.59980     4.37808    90.00000   207.59980     4.37808
     0.60000    90.00000   204.18128     4.37755    90.00000   204.18128     4.37755
     0.70000    90.00000   199.89366     4.37687    90.00000   199.89366     4.37687
     0.80000    90.00000   195.58998     4.37622    90.00000   195.58998     4.37622
     0.90000    90.00000   190.40661     4.37557    90.00000   190.40661     4.37557
     1.00000    90.00000   180.00000     4.37499    90.00000   180.00000     4.37499
     1.10000    90.00000   180.00000     4.37495    90.00000   180.00000     4.37495
     1.20000    90.00000   180.00000     4.37491    90.00000   180.00000     4.37491
     1.30000    90.00000   180.00000     4.37487    90.00000   180.00000     4.37487
     1.40000    90.00000   180.00000     4.37483    90.00000   180.00000     4.37483
     1.50000    90.00000   180.00000     4.37479    90.00000   180.00000     4.37479
     1.60000    90.00000   180.00000     4.37475    90.00000   180.00000     4.37475
     1.70000    90.00000   180.00000     4.37471    90.00000   180.00000     4.37471
     1.80000    90.00000   180.00000     4.37467    90.00000   180.00000     4.37467
     1.90000    90.00000   180.00000     4.37463    90.00000   180.00000     4.37463
     2.00000    90.00000   180.00000     4.37459    90.00000   180.00000     4.37459
     2.10000    90.00000   180.00000     4.37455    90.00000   180.00000     4.37455
     2.20000    90.00000   180.00000     4.37451    90.00000   180.00000     4.37451
     2.30000    90.00000   180.00000     4.37447    90.00000   180.00000     4.37447
     2.40000    90.00000   180.00000     4.37443    90.00000   180.00000     4.37443
     2.50000    90.00000   180.00000     4.37439    90.00000   180.00000     4.37439
     2.60000    90.00000   180.00000     4.37435    90.00000   180.00000     4.37435
     2.70000    90.00000   180.00000     4.37431    90.00000   180.00000     4.37431
     2.80000    90.00000   180.00000     4.37427    90.00000   180.00000     4.37427
     2.90000    90.00000   180.00000     4.37423    90.00000   180.00000     4.37423
     3.00000    90.00000   180.00000     4.37419    90.00000   180.00000     4.37419
     3.10000    90.00000   180.00000     4.37415    90.00000   180.00000     4.37415
     3.20000    90.00000   180.00000     4.37411    90.00000   180.00000     4.37411
     3.30000    90.00000   180.00000     4.37407    90.00000   180.00000     4.37407
     3.40000    90.00000   180.00000     4.37403    90.00000   180.00000     4.37403
     3.50000    90.00000   180.00000     4.37399    90.00000   180.00000     4.37399
     3.60000    90.00000   180.00000     4.37395    90.00000   180.00000     4.37395
     3.70000    90.00000   180.00000     4.37391    90.00000   180.00000     4.37391
     3.80000    90.00000   180.00000     4.37387    90.00000   180.00000     4.37387
     3.90000    90.00000   180.00000     4.37382    90.00000   180.00000     4.37382
     4.00000    90.00000   180.00000     4.37378    90.00000   180.00000     4.37378
     4.10000    90.00000   180.00000     4.37374    90.00000   180.00000     4.37374
     4.20000    90.00000   180.00000     4.37370    90.00000   180.00000     4.37370
     4.30000    90.00000   180.00000     4.37366    90.00000   180.00000     4.37366
     4.40000    90.00000   180.00000     4.37362    90.00000   180.00000     4.37362
     4.50000    90.00000   180.00000     4.37358    90.00000   180.00000     4.37358
     4.60000    90.00000   180.00000     4.37354    90.00000   180.00000     4.37354
     4.70000    90.00000   180.00000     4.37350    90.00000   180.00000     4.37350
     4.80000    90.00000   180.00000     4.37346    90.00000   180.00000     4.37346
     4.90000    90.00000   180.00000     4.37342    90.00000   180.00000     4.37342
     5.00000    90.00000   180.00000     4.37338    90.00000   180.00000     4.37338
     5.10000    90.00000   180.00000     4.37334    90.00000   180.00000     4.37334
     5.20000    90.00000   180.00000     4.37330    90.00000   180.00000     4.37330
     5.30000    90.00000   180.00000     4.37326    90.00000   180.00000     4.37326
     5.40000    90.00000   180.00000     4.37322    90.00000   180.00000     4.37322
     5.50000    90.00000   180.00000     4.37318    90.00000   180.00000     4.37318
     5.60000    90.00000   180.00000     4.37314    90.00000   180.00000     4.37314
     5.70000    90.00000   180.00000     4.37310    90.00000   180.00000     4.37310
     5.80000    90.00000   180.00000     4.37306    90.00000   180.00000     4.37306
     5.90000    90.00000   180.00000     4.37302    90.00000   180.00000     4.37302
     6.00000    90.00000   180.00000     4.37298    90.00000   180.00000     4.37298
     6.10000    90.00000   180.00000     4.37294    90.00000   180.00000     4.37294
     6.20000    90.00000   180.00000     4.37290    90.00000   180.00000     4.37290
     6.30000    90.00000   180.00000     4.37286    90.00000   180.00000     4.37286
     6.40000    90.00000   180.00000     4.37282    90.00000   180.00000     4.37282
     6.50000    90.00000   180.00000     4.37278    90.00000   180.00000     4.37278
     6.60000    90.00000   180.00000     4.37273    90.00000   180.00000     4.37273
     6.70000    90.00000   180.00000     4.37269    90.00000   180.00000     4.37269
     6.80000    90.00000   180.00000     4.37265    90.00000   180.00000     4.37265
     6.90000    90.00000   180.00000     4.37261    90.00000   180.00000     4.37261
     7.00000    90.00000   180.00000     4.37257    90.00000   180.00000     4.37257
     7.10000    90.00000   180.00000     4.37253    90.00000   180.00000     4.37253
     7.20000    90.00000   180.00000     4.37249    90.00000   180.00000     4.37249
     7.30000    90.00000   180.00000     4.37245    90.00000   180.00000     4.37245
     7.40000    90.00000   180.00000     4.37241    90.00000   180.00000     4.37241
     7.50000    90.00000   180.00000     4.37237    90.00000   180.00000     4.37237
     7.60000    90.00000   180.00000     4.37233    90.00000   180.00000     4.37233
     7.70000    90.00000   180.00000     4.37229    90.00000   180.00000     4.37229
     7.80000    90.00000   180.00000     4.37225    90.00000   180.00000     4.37225
     7.90000    90.00000   180.00000     4.37221    90.00000   180.00000     4.37221
     8.00000    90.00000   180.00000     4.37217    90.00000   180.00000     4.37217
     8.10000    90.00000   180.00000     4.37213    90.00000   180.00000     4.37213
     8.20000    90.00000   180.00000     4.37209    90.00000   180.00000     4.37209
     8.30000    90.00000   180.00000     4.37205    90.00000   180.00000     4.37205
     8.40000    90.00000   180.00000     4.37201    90.00000   180.00000     4.37201
     8.50000    90.00000   180.00000     4.37197    90.00000   180.00000     4.37197
     8.60000    90.00000   180.00000     4.37192    90.00000   180.00000     4.37192
     8.70000    90.00000   180.00000     4.37188    90.00000   180.00000     4.37188
     8.80000    90.00000   180.00000     4.37184    90.00000   180.00000     4.37184
     8.90000    90.00000   180.00000     4.37180    90.00000   180.00000     4.37180
     9.00000    90.00000   180.00000     4.37176    90.00000   180.00000     4.37176
     9.10000    90.00000   180.00000     4.37172    90.00000   180.00000     4.37172
     9.20000    90.00000   180.00000     4.37168    90.00000   180.00000     4.37168
     9.30000    90.00000   180.00000     4.37164    90.00000   180.00000     4.37164
     9.40000    90.00000   180.00000     4.37160    90.00000   180.00000     4.37160
     9.50000    90.00000   180.00000     4.37156    90.00000   180.00000     4.37156
     9.60000    90.00000   180.00000     4.37152    90.00000   180.00000     4.37152
     9.70000    90.00000   180.00000     4.37148    90.00000   180.00000     4.37148
     9.80000    90.00000   180.00000     4.37144    90.00000   180.00000     4.37144
     9.90000    90.00000   180.00000     4.37140    90.00000   180.00000     4.37140
    10.00000    90.00000   180.00000     4.37136    90.00000   180.00000     4.37136
    10.10000    90.00000   180.00000     4.37132    90.00000   180.00000     4.37132
    10.20000    90.00000   180.00000     4.37128    90.00000   180.00000     4.37128
    10.30000    90.00000   180.00000     4.37123    90.00000   180.00000     4.37123
    10.40000    90.00000   180.00000     4.37119    90.00000   180.00000     4.37119
    10.50000    90.00000   180.00000     4.37115    90.00000   180.00000     4.37115
    10.60000    90.00000   180.00000     4.37111    90.00000   180.00000     4.37111
    10.70000    90.00000   180.00000     4.37107    90.00000   180.00000     4.37107
    10.80000    90.00000   180.00000     4.37103    90.00000   180.00000     4.37103
    10.90000    90.00000   180.00000     4.37099    90.00000   180.00000     4.37099
    11.00000    90.00000   180.00000     4.37095    90.00000   180.00000     4.37095
    11.10000    90.00000   180.00000     4.37091    90.00000   180.00000     4.37091
    11.20000    90.00000   180.00000     4.37087    90.00000   180.00000     4.37087
    11.30000    90.00000   180.00000     4.37083    90.00000   180.00000     4.37083
    11.40000    90.00000   180.00000     4.37079    90.00000   180.00000     4.37079
    11.50000    90.00000   180.00000     4.37075    90.00000   180.00000     4.37075
    11.60000    90.00000   180.00000     4.37071    90.00000   180.00000     4.37071
    11.70000    90.00000   180.00000     4.37066    90.00000   180.00000     4.37066
    11.80000    90.00000   180.00000     4.37062    90.00000   180.00000     4.37062
    11.90000    90.00000   180.00000     4.37058    90.00000   180.00000     4.37058
    12.00000    90.00000   180.00000     4.37054    90.00000   180.00000     4.37054
    12.10000    90.00000   180.00000     4.37050    90.00000   180.00000     4.37050
    12.20000    90.00000   180.00000     4.37046    90.00000   180.00000     4.37046
    12.30000    90.00000   180.00000     4.37042    90.00000   180.00000     4.37042
    12.40000    90.00000   180.00000     4.37038    90.00000   180.00000     4.37038
    12.50000    90.00000   180.00000     4.37034    90.00000   180.00000     4.37034
    12.60000    90.00000   180.00000     4.37030    90.00000   180.00000     4.37030
    12.70000    90.00000   180.00000     4.37026    90.00000   180.00000     4.37026
    12.80000    90.00000   180.00000     4.37022    90.00000   180.00000     4.37022
    12.90000    90.00000   180.00000     4.37018    90.00000   180.00000     4.37018
    13.00000    90.00000   180.00000     4.37013    90.00000   180.00000     4.37013
    13.10000    90.00000   180.00000     4.37009    90.00000   180.00000     4.37009
    13.20000    90.00000   180.00000     4.37005    90.00000   180.00000     4.37005
    13.30000    90.00000   180.00000     4.37001    90.00000   180.00000     4.37001
    13.40000    90.00000   180.00000     4.36997    90.00000   180.00000     4.36997
    13.50000    90.00000   180.00000     4.36993    90.00000   180.00000     4.36993
    13.60000    90.00000   180.00000     4.36989    90.00000   180.00000     4.36989
    13.70000    90.00000   180.00000     4.36985    90.00000   180.00000     4.36985
    13.80000    90.00000   180.00000     4.36981    90.00000   180.00000     4.36981
    13.90000    90.00000   180.00000     4.36977    90.00000   180.00000     4.36977
    14.00000    90.00000   180.00000     4.36973    90.00000   180.00000     4.36973
    14.10000    90.00000   180.00000     4.36969    90.00000   180.00000     4.36969
    14.20000    90.00000   180.00000     4.36964    90.00000   180.00000     4.36964
    14.30000    90.00000   180.00000     4.36960    90.00000   180.00000     4.36960
    14.40000    90.00000   180.00000     4.36956    90.00000   180.00000     4.36956
    14.50000    90.00000   180.00000     4.36952    90.00000   180.00000     4.36952
    14.60000    90.00000   180.00000     4.36948    90.00000   180.00000     4.36948
    14.70000    90.00000   180.00000     4.36944    90.00000   180.00000     4.36944
    14.80000    90.00000   180.00000     4.36940    90.00000   180.00000     4.36940
    14.90000    90.00000   180.00000     4.36936    90.00000   180.00000     4.36936
    15.00000    90.00000   180.00000     4.36932    90.00000   180.00000     4.36932
    15.10000    90.00000   180.00000     4.36928    90.00000   180.00000     4.36928
    15.20000    90.00000   180.00000     4.36924    90.00000   180.00000     4.36924
    15.30000    90.00000   180.00000     4.36919    90.00000   180.00000     4.36919
    15.40000    90.00000   180.00000     4.36915    90.00000   180.00000     4.36915
    15.50000    90.00000   180.00000     4.36911    90.00000   180.00000     4.36911
    15.60000    90.00000   180.00000     4.36907    90.00000   180.00000     4.36907
    15.70000    90.00000   180.00000     4.36903    90.00000   180.00000     4.36903
    15.80000    90.00000   180.00000     4.36899    90.00000   180.00000     4.36899
    15.90000    90.00000   180.00000     4.36895    90.00000   180.00000     4.36895
    16.00000    90.00000   180.00000     4.36891    90.00000   180.00000     4.36891
    16.10000    90.00000   180.00000     4.36887    90.00000   180.00000     4.36887
    16.20000    90.00000   180.00000     4.36883    90.00000   180.00000     4.36883
    16.30000    90.00000   180.00000     4.36878    90.00000   180.00000     4.36878
    16.40000    90.00000   180.00000     4.36874    90.00000   180.00000     4.36874
    16.50000    90.00000   180.00000     4.36870    90.00000   180.00000     4.36870
    16.60000    90.00000   180.00000     4.36866    90.00000   180.00000     4.36866
    16.70000    90.00000   180.00000     4.36862    90.00000   180.00000     4.36862
    16.80000    90.00000   180.00000     4.36858    90.00000   180.00000     4.36858
    16.90000    90.00000   180.00000     4.36854    90.00000   180.00000     4.36854
    17.00000    90.00000   180.00000     4.36850    90.00000   180.00000     4.36850
    17.10000    90.00000   180.00000     4.36846    90.00000   180.00000     4.36846
    17.20000    90.00000   180.00000     4.36842    90.00000   180.00000     4.36842
    17.30000    90.00000   180.00000     4.36837    90.00000   180.00000     4.36837
    17.40000    90.00000   180.00000     4.36833    90.00000   180.00000     4.36833
    17.50000    90.00000   180.00000     4.36829    90.00000   180.00000     4.36829
    17.60000    90.00000   180.00000     4.36825    90.00000   180.00000     4.36825
    17.70000    90.00000   180.00000     4.36821    90.00000   180.00000     4.36821
    17.80000    90.00000   180.00000     4.36817    90.00000   180.00000     4.36817
    17.90000    90.00000   180.00000     4.36813    90.00000   180.00000     4.36813
    18.00000    90.00000   180.00000     4.36809    90.00000   180.00000     4.36809
    18.10000    90.00000   180.00000     4.36805    90.00000   180.00000     4.36805
    18.20000    90.00000   180.00000     4.36800    90.00000   180.00000     4.36800
    18.30000    90.00000   180.00000     4.36796    90.00000   180.00000     4.36796
    18.40000    90.00000   180.00000     4.36792    90.00000   180.00000     4.36792
    18.50000    90.00000   180.00000     4.36788    90.00000   180.00000     4.36788
    18.60000    90.00000   180.00000     4.36784    90.00000   180.00000     4.36784
    18.70000    90.00000   180.00000     4.36780    90.00000   180.00000     4.36780
    18.80000    90.00000   180.00000     4.36776    90.00000   180.00000     4.36776
    18.90000    90.00000   180.00000     4.36772    90.00000   180.00000     4.36772
    19.00000    90.00000   180.00000     4.36768    90.00000   180.00000     4.36768
    19.10000    90.00000   180.00000     4.36763    90.00000   180.00000     4.36763
    19.20000    90.00000   180.00000     4.36759    90.00000   180.00000     4.36759
    19.30000    90.00000   180.00000     4.36755    90.00000   180.00000     4.36755
    19.40000    90.00000   180.00000     4.36751    90.00000   180.00000     4.36751
    19.50000    90.00000   180.00000     4.36747    90.00000   180.00000     4.36747
    19.60000    90.00000   180.00000     4.36743    90.00000   180.00000     4.36743
    19.70000    90.00000   180.00000     4.36739    90.00000   180.00000     4.36739
    19.80000    90.00000   180.00000     4.36735    90.00000   180.00000     4.36735
    19.90000    90.00000   180.00000     4.36730    90.00000   180.00000     4.36730
    20.00000    90.00000   180.00000     4.36726    90.00000   180.00000     4.36726
    20.10000    90.00000   180.00000     4.36722    90.00000   180.00000     4.36722
    20.20000    90.00000   180.00000     4.36718    90.00000   180.00000     4.36718
    20.30000    90.00000   180.00000     4.36714    90.00000   180.00000     4.36714
    20.40000    90.00000   180.00000     4.36710    90.00000   180.00000     4.36710
    20.50000    90.00000   180.00000     4.36706    90.00000   180.00000     4.36706
    20.60000    90.00000   180.00000     4.36702    90.00000   180.00000     4.36702
    20.70000    90.00000   180.00000     4.36697    90.00000   180.00000     4.36697
    20.80000    90.00000   180.00000     4.36693    90.00000   180.00000     4.36693
    20.90000    90.00000   180.00000     4.36689    90.00000   180.00000     4.36689
    21.00000    90.00000   180.00000     4.36685    90.00000   180.00000     4.36685
    21.10000    90.00000   180.00000     4.36681    90.00000   180.00000     4.36681
    21.20000    90.00000   180.00000     4.36677    90.00000   180.00000     4.36677
    21.30000    90.00000   180.00000     4.36673    90.00000   180.00000     4.36673
    21.40000    90.00000   180.00000     4.36669    90.00000   180.00000     4.36669
    21.50000    90.00000   180.00000     4.36664    90.00000   180.00000     4.36664
    21.60000    90.00000   180.00000     4.36660    90.00000   180.00000     4.36660
    21.70000    90.00000   180.00000     4.36656    90.00000   180.00000     4.36656
    21.80000    90.00000   180.00000     4.36652    90.00000   180.00000     4.36652
    21.90000    90.00000   180.00000     4.36648    90.00000   180.00000     4.36648
    22.00000    90.00000   180.00000     4.36644    90.00000   180.00000     4.36644
    22.10000    90.00000   180.00000     4.36640    90.00000   180.00000     4.36640
    22.20000    90.00000   180.00000     4.36635    90.00000   180.00000     4.36635
    22.30000    90.00000   180.00000     4.36631    90.00000   180.00000     4.36631
    22.40000    90.00000   180.00000     4.36627    90.00000   180.00000     4.36627
    22.50000    90.00000   180.00000     4.36623    90.00000   180.00000     4.36623
    22.60000    90.00000   180.00000     4.36619    90.00000   180.00000     4.36619
    22.70000    90.00000   180.00000     4.36615    90.00000   180.00000     4.36615
    22.80000    90.00000   180.00000     4.36611    90.00000   180.00000     4.36611
    22.90000    90.00000   180.00000     4.36607    90.00000   180.00000     4.36607
    23.00000    90.00000   180.00000     4.36602    90.00000   180.00000     4.36602
    23.10000    90.00000   180.00000     4.36598    90.00000   180.00000     4.36598
    23.20000    90.00000   180.00000     4.36594    90.00000   180.00000     4.36594
    23.30000    90.00000   180.00000     4.36590    90.00000   180.00000     4.36590
    23.40000    90.00000   180.00000     4.36586    90.00000   180.00000     4.36586
    23.50000    90.00000   180.00000     4.36582    90.00000   180.00000     4.36582
    23.60000    90.00000   180.00000     4.36578    90.00000   180.00000     4.36578
    23.70000    90.00000   180.00000     4.36573    90.00000   180.00000     4.36573
    23.80000    90.00000   180.00000     4.36569    90.00000   180.00000     4.36569
    23.90000    90.00000   180.00000     4.36565    90.00000   180.00000     4.36565
    24.00000    90.00000   180.00000     4.36561    90.00000   180.00000     4.36561
    24.10000    90.00000   180.00000     4.36557    90.00000   180.00000     4.36557
    24.20000    90.00000   180.00000     4.36553    90.00000   180.00000     4.36553
    24.30000    90.00000   180.00000     4.36549    90.00000   180.00000     4.36549
    24.40000    90.00000   180.00000     4.36544    90.00000   180.00000     4.36544
    24.50000    90.00000   180.00000     4.36540    90.00000   180.00000     4.36540
    24.60000    90.00000   180.00000     4.36536    90.00000   180.00000     4.36536
    24.70000    90.00000   180.00000     4.36532    90.00000   180.00000     4.36532
    24.80000    90.00000   180.00000     4.36528    90.00000   180.00000     4.36528
    24.90000    90.00000   180.00000     4.36524    90.00000   180.00000     4.36524
    25.00000    90.00000   180.00000     4.36519    90.00000   180.00000     4.36519
    25.10000    90.00000   180.00000     4.36515    90.00000   180.00000     4.36515
    25.20000    90.00000   180.00000     4.36511    90.00000   180.00000     4.36511
    25.30000    90.00000   180.00000     4.36507    90.00000   180.00000     4.36507
    25.40000    90.00000   180.00000     4.36503    90.00000   180.00000     4.36503
    25.50000    90.00000   180.00000     4.36499    90.00000   180.00000     4.36499
    25.60000    90.00000   180.00000     4.36495    90.00000   180.00000     4.36495
    25.70000    90.00000   180.00000     4.36490    90.00000   180.00000     4.36490
    25.80000    90.00000   180.00000     4.36486    90.00000   180.00000     4.36486
    25.90000    90.00000   180.00000     4.36482    90.00000   180.00000     4.36482
    26.00000    90.00000   180.00000     4.36478    90.00000   180.00000     4.36478
    26.10000    90.00000   180.00000     4.36474    90.00000   180.00000     4.36474
    26.20000    90.00000   180.00000     4.36470    90.00000   180.00000     4.36470
    26.30000    90.00000   180.00000     4.36465    90.00000   180.00000     4.36465
    26.40000    90.00000   180.00000     4.36461    90.00000   180.00000     4.36461
    26.50000    90.00000   180.00000     4.36457    90.00000   180.00000     4.36457
    26.60000    90.00000   180.00000     4.36453    90.00000   180.00000     4.36453
    26.70000    90.00000   180.00000     4.36449    90.00000   180.00000     4.36449
    26.80000    90.00000   180.00000     4.36445    90.00000   180.00000     4.36445
    26.90000    90.00000   180.00000     4.36440    90.00000   180.00000     4.36440
    27.00000    90.00000   180.00000     4.36436    90.00000   180.00000     4.36436
    27.10000    90.00000   180.00000     4.36432    90.00000   180.00000     4.36432
    27.20000    90.00000   180.00000     4.36428    90.00000   180.00000     4.36428
    27.30000    90.00000   180.00000     4.36424    90.00000   180.00000     4.36424
    27.40000    90.00000   180.00000     4.36420    90.00000   180.00000     4.36420
    27.50000    90.00000   180.00000     4.36416    90.00000   180.00000     4.36416
    27.60000    90.00000   180.00000     4.36411    90.00000   180.00000     4.36411
    27.70000    90.00000   180.00000     4.36407    90.00000   180.00000     4.36407
    27.80000    90.00000   180.00000     4.36403    90.00000   180.00000     4.36403
    27.90000    90.00000   180.00000     4.36399    90.00000   180.00000     4.36399
    28.00000    90.00000   180.00000     4.36395    90.00000   180.00000     4.36395
    28.10000    90.00000   180.00000     4.36390    90.00000   180.00000     4.36390
    28.20000    90.00000   180.00000     4.36386    90.00000   180.00000     4.36386
    28.30000    90.00000   180.00000     4.36382    90.00000   180.00000     4.36382
    28.40000    90.00000   180.00000     4.36378    90.00000   180.00000     4.36378
    28.50000    90.00000   180.00000     4.36374    90.00000   180.00000     4.36374
    28.60000    90.00000   180.00000     4.36370    90.00000   180.00000     4.36370
    28.70000    90.00000   180.00000     4.36365    90.00000   180.00000     4.36365
    28.80000    90.00000   180.00000     4.36361    90.00000   180.00000     4.36361
    28.90000    90.00000   180.00000     4.36357    90.00000   180.00000     4.36357
    29.00000    90.00000   180.00000     4.36353    90.00000   180.00000     4.36353
    29.10000    90.00000   180.00000     4.36349    90.00000   180.00000     4.36349
    29.20000    90.00000   180.00000     4.36345    90.00000   180.00000     4.36345
    29.30000    90.00000   180.00000     4.36340    90.00000   180.00000     4.36340
    29.40000    90.00000   180.00000     4.36336    90.00000   180.00000     4.36336
    29.50000    90.00000   180.00000     4.36332    90.00000   180.00000     4.36332
    29.60000    90.00000   180.00000     4.36328    90.00000   180.00000     4.36328
    29.70000    90.00000   180.00000     4.36324    90.00000   180.00000     4.36324
    29.80000    90.00000   180.00000     4.36320    90.00000   180.00000     4.36320
    29.90000    90.00000   180.00000     4.36315    90.00000   180.00000     4.36315
    30.00000    90.00000   180.00000     4.36311    90.00000   180.00000     4.36311
    30.10000    90.00000   180.00000     4.36307    90.00000   180.00000     4.36307
    30.20000    90.00000   180.00000     4.36303    90.00000   180.00000     4.36303
    30.30000    90.00000   180.00000     4.36299    90.00000   180.00000     4.36299
    30.40000    90.00000   180.00000     4.36294    90.00000   180.00000     4.36294
    30.50000    90.00000   180.00000     4.36290    90.00000   180.00000     4.36290
    30.60000    90.00000   180.00000     4.36286    90.00000   180.00000     4.36286
    30.70000    90.00000   180.00000     4.36282    90.00000   180.00000     4.36282
    30.80000    90.00000   180.00000     4.36278    90.00000   180.00000     4.36278
    30.90000    90.00000   180.00000     4.36274    90.00000   180.00000     4.36274
    31.00000    90.00000   180.00000     4.36269    90.00000   180.00000     4.36269
    31.10000    90.00000   180.00000     4.36265    90.00000   180.00000     4.36265
    31.20000    90.00000   180.00000     4.36261    90.00000   180.00000     4.36261
    31.30000    90.00000   180.00000     4.36257    90.00000   180.00000     4.36257
    31.40000    90.00000   180.00000     4.36253    90.00000   180.00000     4.36253
    31.50000    90.00000   180.00000     4.36248    90.00000   180.00000     4.36248
    31.60000    90.00000   180.00000     4.36244    90.00000   180.00000     4.36244
    31.70000    90.00000   180.00000     4.36240    90.00000   180.00000     4.36240
    31.80000    90.00000   180.00000     4.36236    90.00000   180.00000     4.36236
    31.90000    90.00000   180.00000     4.36232    90.00000   180.00000     4.36232
    32.00000    90.00000   180.00000     4.36227    90.00000   180.00000     4.36227
    32.10000    90.00000   180.00000     4.36223    90.00000   180.00000     4.36223
    32.20000    90.00000   180.00000     4.36219    90.00000   180.00000     4.36219
    32.30000    90.00000   180.00000     4.36215    90.00000   180.00000     4.36215
    32.40000    90.00000   180.00000     4.36211    90.00000   180.00000     4.36211
    32.50000    90.00000   180.00000     4.36206    90.00000   180.00000     4.36206
    32.60000    90.00000   180.00000     4.36202    90.00000   180.00000     4.36202
    32.70000    90.00000   180.00000     4.36198    90.00000   180.00000     4.36198
    32.80000    90.00000   180.00000     4.36194    90.00000   180.00000     4.36194
    32.90000    90.00000   180.00000     4.36190    90.00000   180.00000     4.36190
    33.00000    90.00000   180.00000     4.36185    90.00000   180.00000     4.36185
    33.10000    90.00000   180.00000     4.36181    90.00000   180.00000     4.36181
    33.20000    90.00000   180.00000     4.36177    90.00000   180.00000     4.36177
    33.30000    90.00000   180.00000     4.36173    90.00000   180.00000     4.36173
    33.40000    90.00000   180.00000     4.36169    90.00000   180.00000     4.36169
    33.50000    90.00000   180.00000     4.36164    90.00000   180.00000     4.36164
    33.60000    90.00000   180.00000     4.36160    90.00000   180.00000     4.36160
    33.70000    90.00000   180.00000     4.36156    90.00000   180.00000     4.36156
    33.80000    90.00000   180.00000     4.36152    90.00000   180.00000     4.36152
    33.90000    90.00000   180.00000     4.36148    90.00000   180.00000     4.36148
    34.00000    90.00000   180.00000     4.36143    90.00000   180.00000     4.36143
    34.10000    90.00000   180.00000     4.36139    90.00000   180.00000     4.36139
    34.20000    90.00000   180.00000     4.36135    90.00000   180.00000     4.36135
    34.30000    90.00000   180.00000     4.36131    90.00000   180.00000     4.36131
    34.40000    90.00000   180.00000     4.36127    90.00000   180.00000     4.36127
    34.50000    90.00000   180.00000     4.36122    90.00000   180.00000     4.36122
    34.60000    90.00000   180.00000     4.36118    90.00000   180.00000     4.36118
    34.70000    90.00000   180.00000     4.36114    90.00000   180.00000     4.36114
    34.80000    90.00000   180.00000     4.36110    90.00000   180.00000     4.36110
    34.90000    90.00000   180.00000     4.36106    90.00000   180.00000     4.36106
    35.00000    90.00000   180.00000     4.36101    90.00000   180.00000     4.36101
    35.10000    90.00000   180.00000     4.36097    90.00000   180.00000     4.36097
    35.20000    90.00000   180.00000     4.36093    90.00000   180.00000     4.36093
    35.30000    90.00000   180.00000     4.36089    90.00000   180.00000     4.36089
    35.40000    90.00000   180.00000     4.36085    90.00000   180.00000     4.36085
    35.50000    90.00000   180.00000     4.36080    90.00000   180.00000     4.36080
    35.60000    90.00000   180.00000     4.36076    90.00000   180.00000     4.36076
    35.70000    90.00000   180.00000     4.36072    90.00000   180.00000     4.36072
    35.80000    90.00000   180.00000     4.36068    90.00000   180.00000     4.36068
    35.90000    90.00000   180.00000     4.36063    90.00000   180.00000     4.36063
    36.00000    90.00000   180.00000     4.36059    90.00000   180.00000     4.36059
    36.10000    90.00000   180.00000     4.36055    90.00000   180.00000     4.36055
    36.20000    90.00000   180.00000     4.36051    90.00000   180.00000     4.36051
    36.30000    90.00000   180.00000     4.36047    90.00000   180.00000     4.36047
    36.40000    90.00000   180.00000     4.36042    90.00000   180.00000     4.36042
    36.50000    90.00000   180.00000     4.36038    90.00000   180.00000     4.36038
    36.60000    90.00000   180.00000     4.36034    90.00000   180.00000     4.36034
    36.70000    90.00000   180.00000     4.36030    90.00000   180.00000     4.36030
    36.80000    90.00000   180.00000     4.36026    90.00000   180.00000     4.36026
    36.90000    90.00000   180.00000     4.36021    90.00000   180.00000     4.36021
    37.00000    90.00000   180.00000     4.36017    90.00000   180.00000     4.36017
    37.10000    90.00000   180.00000     4.36013    90.00000   180.00000     4.36013
    37.20000    90.00000   180.00000     4.36009    90.00000   180.00000     4.36009
    37.30000    90.00000   180.00000     4.36004    90.00000   180.00000     4.36004
    37.40000    90.00000   180.00000     4.36000    90.00000   180.00000     4.36000
    37.50000    90.00000   180.00000     4.35996    90.00000   180.00000     4.35996
    37.60000    90.00000   180.00000     4.35992    90.00000   180.00000     4.35992
    37.70000    90.00000   180.00000     4.35988    90.00000   180.00000     4.35988
    37.80000    90.00000   180.00000     4.35983    90.00000   180.00000     4.35983
    37.90000    90.00000   180.00000     4.35979    90.00000   180.00000     4.35979
    38.00000    90.00000   180.00000     4.35975    90.00000   180.00000     4.35975
    38.10000    90.00000   180.00000     4.35971    90.00000   180.00000     4.35971
    38.20000    90.00000   180.00000     4.35966    90.00000   180.00000     4.35966
    38.30000    90.00000   180.00000     4.35962    90.00000   180.00000     4.35962
    38.40000    90.00000   180.00000     4.35958    90.00000   180.00000     4.35958
    38.50000    90.00000   180.00000     4.35954    90.00000   180.00000     4.35954
    38.60000    90.00000   180.00000     4.35949    90.00000   180.00000     4.35949
    38.70000    90.00000   180.00000     4.35945    90.00000   180.00000     4.35945
    38.80000    90.00000   180.00000     4.35941    90.00000   180.00000     4.35941
    38.90000    90.00000   180.00000     4.35937    90.00000   180.00000     4.35937
    39.00000    90.00000   180.00000     4.35933    90.00000   180.00000     4.35933
    39.10000    90.00000   180.00000     4.35928    90.00000   180.00000     4.35928
    39.20000    90.00000   180.00000     4.35924    90.00000   180.00000     4.35924
    39.30000    90.00000   180.00000     4.35920    90.00000   180.00000     4.35920
    39.40000    90.00000   180.00000     4.35916    90.00000   180.00000     4.35916
    39.50000    90.00000   180.00000     4.35911    90.00000   180.00000     4.35911
    39.60000    90.00000   180.00000     4.35907    90.00000   180.00000     4.35907
    39.70000    90.00000   180.00000     4.35903    90.00000   180.00000     4.35903
    39.80000    90.00000   180.00000     4.35899    90.00000   180.00000     4.35899
    39.90000    90.00000   180.00000     4.35894    90.00000   180.00000     4.35894
    40.00000    90.00000   180.00000     4.35890    90.00000   180.00000     4.35890
