 # applied field (T), theta (degree), phi (degree), abs for RE 1-2
     0.00000   180.00000   360.00000     4.45074     0.00000     0.00000     0.00000
     0.10000   179.87464   180.00000     4.45074     0.00000     0.00000     0.00000
     0.20000   179.70736   180.00000     4.45074     0.00000     0.00000     0.00000
     0.30000   179.58200   180.00000     4.45073     0.00000     0.00000     0.00000
     0.40000   179.45663   180.00000     4.45073     0.00000     0.00000     0.00000
     0.50000   179.28934   180.00000     4.45072     0.00000     0.00000     0.00000
     0.60000   179.16396   180.00000     4.45071     0.00000     0.00000     0.00000
     0.70000   179.03857   180.00000     4.45070     0.00000     0.00000     0.00000
     0.80000   178.87126   180.00000     4.45068     0.00000     0.00000     0.00000
     0.90000   178.74585   180.00000     4.45066     0.00000     0.00000     0.00000
     1.00000   178.62044   180.00000     4.45065     0.00000     0.00000     0.00000
     1.10000   178.45308   180.00000     4.45062     0.00000     0.00000     0.00000
     1.20000   178.32764   180.00000     4.45060     0.00000     0.00000     0.00000
     1.30000   178.20219   180.00000     4.45058     0.00000     0.00000     0.00000
     1.40000   178.03478   180.00000     4.45055     0.00000     0.00000     0.00000
     1.50000   177.90930   180.00000     4.45052     0.00000     0.00000     0.00000
     1.60000   177.78380   180.00000     4.45049     0.00000     0.00000     0.00000
     1.70000   177.61632   180.00000     4.45045     0.00000     0.00000     0.00000
     1.80000   177.49078   180.00000     4.45042     0.00000     0.00000     0.00000
     1.90000   177.36522   180.00000     4.45039     0.00000     0.00000     0.00000
     2.00000   177.19766   180.00000     4.45034     0.00000     0.00000     0.00000
     2.10000   177.07206   180.00000     4.45031     0.00000     0.00000     0.00000
     2.20000   176.90443   180.00000     4.45025     0.00000     0.00000     0.00000
     2.30000   176.77878   180.00000     4.45021     0.00000     0.00000     0.00000
     2.40000   176.65310   180.00000     4.45017     0.00000     0.00000     0.00000
     2.50000   176.48537   180.00000     4.45011     0.00000     0.00000     0.00000
     2.60000   176.35963   180.00000     4.45007     0.00000     0.00000     0.00000
     2.70000   176.23386   180.00000     4.45002     0.00000     0.00000     0.00000
     2.80000   176.06601   180.00000     4.44995     0.00000     0.00000     0.00000
     2.90000   175.94018   180.00000     4.44990     0.00000     0.00000     0.00000
     3.00000   175.81432   180.00000     4.44985     0.00000     0.00000     0.00000
     3.10000   175.64633   180.00000     4.44978     0.00000     0.00000     0.00000
     3.20000   175.52040   180.00000     4.44972     0.00000     0.00000     0.00000
     3.30000   175.39443   180.00000     4.44966     0.00000     0.00000     0.00000
     3.40000   175.22630   180.00000     4.44958     0.00000     0.00000     0.00000
     3.50000   175.10025   180.00000     4.44952     0.00000     0.00000     0.00000
     3.60000   174.97416   180.00000     4.44946     0.00000     0.00000     0.00000
     3.70000   174.80588   180.00000     4.44937     0.00000     0.00000     0.00000
     3.80000   174.67970   180.00000     4.44930     0.00000     0.00000     0.00000
     3.90000   174.55349   180.00000     4.44923     0.00000     0.00000     0.00000
     4.00000   174.38503   180.00000     4.44914     0.00000     0.00000     0.00000
     4.10000   174.25872   180.00000     4.44907     0.00000     0.00000     0.00000
     4.20000   174.13237   180.00000     4.44899     0.00000     0.00000     0.00000
     4.30000   173.96372   180.00000     4.44889     0.00000     0.00000     0.00000
     4.40000   173.83726   180.00000     4.44881     0.00000     0.00000     0.00000
     4.50000   173.71076   180.00000     4.44873     0.00000     0.00000     0.00000
     4.60000   173.54191   180.00000     4.44863     0.00000     0.00000     0.00000
     4.70000   173.41530   180.00000     4.44854     0.00000     0.00000     0.00000
     4.80000   173.28864   180.00000     4.44846     0.00000     0.00000     0.00000
     4.90000   173.16193   180.00000     4.44837     0.00000     0.00000     0.00000
     5.00000   172.99280   180.00000     4.44826     0.00000     0.00000     0.00000
     5.10000   172.86597   180.00000     4.44817     0.00000     0.00000     0.00000
     5.20000   172.73909   180.00000     4.44807     0.00000     0.00000     0.00000
     5.30000   172.56972   180.00000     4.44795     0.00000     0.00000     0.00000
     5.40000   172.44271   180.00000     4.44785     0.00000     0.00000     0.00000
     5.50000   172.31565   180.00000     4.44776     0.00000     0.00000     0.00000
     5.60000   172.14604   180.00000     4.44763     0.00000     0.00000     0.00000
     5.70000   172.01884   180.00000     4.44753     0.00000     0.00000     0.00000
     5.80000   171.89158   180.00000     4.44742     0.00000     0.00000     0.00000
     5.90000   171.72170   180.00000     4.44729     0.00000     0.00000     0.00000
     6.00000   171.59430   180.00000     4.44718     0.00000     0.00000     0.00000
     6.10000   171.46684   180.00000     4.44707     0.00000     0.00000     0.00000
     6.20000   171.29669   180.00000     4.44693     0.00000     0.00000     0.00000
     6.30000   171.16908   180.00000     4.44682     0.00000     0.00000     0.00000
     6.40000   171.04140   180.00000     4.44670     0.00000     0.00000     0.00000
     6.50000   170.87096   180.00000     4.44655     0.00000     0.00000     0.00000
     6.60000   170.74312   180.00000     4.44644     0.00000     0.00000     0.00000
     6.70000   170.61522   180.00000     4.44632     0.00000     0.00000     0.00000
     6.80000   170.48724   180.00000     4.44620     0.00000     0.00000     0.00000
     6.90000   170.31641   180.00000     4.44604     0.00000     0.00000     0.00000
     7.00000   170.18827   180.00000     4.44591     0.00000     0.00000     0.00000
     7.10000   170.06005   180.00000     4.44579     0.00000     0.00000     0.00000
     7.20000   169.88889   180.00000     4.44562     0.00000     0.00000     0.00000
     7.30000   169.76051   180.00000     4.44549     0.00000     0.00000     0.00000
     7.40000   169.63204   180.00000     4.44536     0.00000     0.00000     0.00000
     7.50000   169.46055   180.00000     4.44519     0.00000     0.00000     0.00000
     7.60000   169.33190   180.00000     4.44506     0.00000     0.00000     0.00000
     7.70000   169.20318   180.00000     4.44492     0.00000     0.00000     0.00000
     7.80000   169.03133   180.00000     4.44474     0.00000     0.00000     0.00000
     7.90000   168.90242   180.00000     4.44460     0.00000     0.00000     0.00000
     8.00000   168.77342   180.00000     4.44446     0.00000     0.00000     0.00000
     8.10000   168.64434   180.00000     4.44432     0.00000     0.00000     0.00000
     8.20000   168.47201   180.00000     4.44413     0.00000     0.00000     0.00000
     8.30000   168.34273   180.00000     4.44398     0.00000     0.00000     0.00000
     8.40000   168.21336   180.00000     4.44384     0.00000     0.00000     0.00000
     8.50000   168.04066   180.00000     4.44364     0.00000     0.00000     0.00000
     8.60000   167.91108   180.00000     4.44349     0.00000     0.00000     0.00000
     8.70000   167.78142   180.00000     4.44334     0.00000     0.00000     0.00000
     8.80000   167.65166   180.00000     4.44319     0.00000     0.00000     0.00000
     8.90000   167.47844   180.00000     4.44298     0.00000     0.00000     0.00000
     9.00000   167.34846   180.00000     4.44282     0.00000     0.00000     0.00000
     9.10000   167.21839   180.00000     4.44267     0.00000     0.00000     0.00000
     9.20000   167.04475   180.00000     4.44245     0.00000     0.00000     0.00000
     9.30000   166.91446   180.00000     4.44229     0.00000     0.00000     0.00000
     9.40000   166.78407   180.00000     4.44213     0.00000     0.00000     0.00000
     9.50000   166.65358   180.00000     4.44196     0.00000     0.00000     0.00000
     9.60000   166.47937   180.00000     4.44174     0.00000     0.00000     0.00000
     9.70000   166.34864   180.00000     4.44158     0.00000     0.00000     0.00000
     9.80000   166.21782   180.00000     4.44140     0.00000     0.00000     0.00000
     9.90000   166.08689   180.00000     4.44123     0.00000     0.00000     0.00000
    10.00000   165.91209   180.00000     4.44101     0.00000     0.00000     0.00000
    10.10000   165.78091   180.00000     4.44083     0.00000     0.00000     0.00000
    10.20000   165.64963   180.00000     4.44065     0.00000     0.00000     0.00000
    10.30000   165.51824   180.00000     4.44047     0.00000     0.00000     0.00000
    10.40000   165.34283   180.00000     4.44024     0.00000     0.00000     0.00000
    10.50000   165.21119   180.00000     4.44006     0.00000     0.00000     0.00000
    10.60000   165.07943   180.00000     4.43987     0.00000     0.00000     0.00000
    10.70000   164.90353   180.00000     4.43963     0.00000     0.00000     0.00000
    10.80000   164.77151   180.00000     4.43945     0.00000     0.00000     0.00000
    10.90000   164.63938   180.00000     4.43926     0.00000     0.00000     0.00000
    11.00000   164.50713   180.00000     4.43907     0.00000     0.00000     0.00000
    11.10000   164.33057   180.00000     4.43882     0.00000     0.00000     0.00000
    11.20000   164.19805   180.00000     4.43862     0.00000     0.00000     0.00000
    11.30000   164.06541   180.00000     4.43843     0.00000     0.00000     0.00000
    11.40000   163.93265   180.00000     4.43823     0.00000     0.00000     0.00000
    11.50000   163.79977   180.00000     4.43804     0.00000     0.00000     0.00000
    11.60000   163.62236   180.00000     4.43778     0.00000     0.00000     0.00000
    11.70000   163.48919   180.00000     4.43758     0.00000     0.00000     0.00000
    11.80000   163.35590   180.00000     4.43737     0.00000     0.00000     0.00000
    11.90000   163.22249   180.00000     4.43717     0.00000     0.00000     0.00000
    12.00000   163.04436   180.00000     4.43690     0.00000     0.00000     0.00000
    12.10000   162.91065   180.00000     4.43669     0.00000     0.00000     0.00000
    12.20000   162.77681   180.00000     4.43649     0.00000     0.00000     0.00000
    12.30000   162.64284   180.00000     4.43628     0.00000     0.00000     0.00000
    12.40000   162.46397   180.00000     4.43600     0.00000     0.00000     0.00000
    12.50000   162.32969   180.00000     4.43579     0.00000     0.00000     0.00000
    12.60000   162.19528   180.00000     4.43557     0.00000     0.00000     0.00000
    12.70000   162.06073   180.00000     4.43536     0.00000     0.00000     0.00000
    12.80000   161.92605   180.00000     4.43514     0.00000     0.00000     0.00000
    12.90000   161.74624   180.00000     4.43485     0.00000     0.00000     0.00000
    13.00000   161.61124   180.00000     4.43463     0.00000     0.00000     0.00000
    13.10000   161.47610   180.00000     4.43441     0.00000     0.00000     0.00000
    13.20000   161.34082   180.00000     4.43419     0.00000     0.00000     0.00000
    13.30000   161.16021   180.00000     4.43390     0.00000     0.00000     0.00000
    13.40000   161.02459   180.00000     4.43367     0.00000     0.00000     0.00000
    13.50000   160.88884   180.00000     4.43344     0.00000     0.00000     0.00000
    13.60000   160.75294   180.00000     4.43321     0.00000     0.00000     0.00000
    13.70000   160.61690   180.00000     4.43298     0.00000     0.00000     0.00000
    13.80000   160.43526   180.00000     4.43268     0.00000     0.00000     0.00000
    13.90000   160.29888   180.00000     4.43245     0.00000     0.00000     0.00000
    14.00000   160.16234   180.00000     4.43221     0.00000     0.00000     0.00000
    14.10000   160.02565   180.00000     4.43198     0.00000     0.00000     0.00000
    14.20000   159.88881   180.00000     4.43174     0.00000     0.00000     0.00000
    14.30000   159.70612   180.00000     4.43143     0.00000     0.00000     0.00000
    14.40000   159.56892   180.00000     4.43119     0.00000     0.00000     0.00000
    14.50000   159.43157   180.00000     4.43095     0.00000     0.00000     0.00000
    14.60000   159.29407   180.00000     4.43070     0.00000     0.00000     0.00000
    14.70000   159.15640   180.00000     4.43046     0.00000     0.00000     0.00000
    14.80000   159.01858   180.00000     4.43021     0.00000     0.00000     0.00000
    14.90000   158.83458   180.00000     4.42989     0.00000     0.00000     0.00000
    15.00000   158.69638   180.00000     4.42964     0.00000     0.00000     0.00000
    15.10000   158.55803   180.00000     4.42939     0.00000     0.00000     0.00000
    15.20000   158.41951   180.00000     4.42914     0.00000     0.00000     0.00000
    15.30000   158.28083   180.00000     4.42889     0.00000     0.00000     0.00000
    15.40000   158.09568   180.00000     4.42856     0.00000     0.00000     0.00000
    15.50000   157.95661   180.00000     4.42830     0.00000     0.00000     0.00000
    15.60000   157.81737   180.00000     4.42804     0.00000     0.00000     0.00000
    15.70000   157.67797   180.00000     4.42779     0.00000     0.00000     0.00000
    15.80000   157.53839   180.00000     4.42753     0.00000     0.00000     0.00000
    15.90000   157.39865   180.00000     4.42727     0.00000     0.00000     0.00000
    16.00000   157.21208   180.00000     4.42692     0.00000     0.00000     0.00000
    16.10000   157.07194   180.00000     4.42666     0.00000     0.00000     0.00000
    16.20000   156.93162   180.00000     4.42640     0.00000     0.00000     0.00000
    16.30000   156.79112   180.00000     4.42613     0.00000     0.00000     0.00000
    16.40000   156.65045   180.00000     4.42587     0.00000     0.00000     0.00000
    16.50000   156.50960   180.00000     4.42560     0.00000     0.00000     0.00000
    16.60000   156.36857   180.00000     4.42533     0.00000     0.00000     0.00000
    16.70000   156.18029   180.00000     4.42497     0.00000     0.00000     0.00000
    16.80000   156.03884   180.00000     4.42470     0.00000     0.00000     0.00000
    16.90000   155.89720   180.00000     4.42443     0.00000     0.00000     0.00000
    17.00000   155.75539   180.00000     4.42416     0.00000     0.00000     0.00000
    17.10000   155.61339   180.00000     4.42388     0.00000     0.00000     0.00000
    17.20000   155.47120   180.00000     4.42360     0.00000     0.00000     0.00000
    17.30000   155.32883   180.00000     4.42333     0.00000     0.00000     0.00000
    17.40000   155.18627   180.00000     4.42305     0.00000     0.00000     0.00000
    17.50000   154.99595   180.00000     4.42268     0.00000     0.00000     0.00000
    17.60000   154.85294   180.00000     4.42240     0.00000     0.00000     0.00000
    17.70000   154.70975   180.00000     4.42212     0.00000     0.00000     0.00000
    17.80000   154.56636   180.00000     4.42183     0.00000     0.00000     0.00000
    17.90000   154.42278   180.00000     4.42155     0.00000     0.00000     0.00000
    18.00000   154.27901   180.00000     4.42126     0.00000     0.00000     0.00000
    18.10000   154.13503   180.00000     4.42098     0.00000     0.00000     0.00000
    18.20000   153.99087   180.00000     4.42069     0.00000     0.00000     0.00000
    18.30000   153.79840   180.00000     4.42031     0.00000     0.00000     0.00000
    18.40000   153.65377   180.00000     4.42002     0.00000     0.00000     0.00000
    18.50000   153.50893   180.00000     4.41973     0.00000     0.00000     0.00000
    18.60000   153.36390   180.00000     4.41943     0.00000     0.00000     0.00000
    18.70000   153.21866   180.00000     4.41914     0.00000     0.00000     0.00000
    18.80000   153.07322   180.00000     4.41884     0.00000     0.00000     0.00000
    18.90000   152.92757   180.00000     4.41855     0.00000     0.00000     0.00000
    19.00000   152.78171   180.00000     4.41825     0.00000     0.00000     0.00000
    19.10000   152.63565   180.00000     4.41795     0.00000     0.00000     0.00000
    19.20000   152.48938   180.00000     4.41766     0.00000     0.00000     0.00000
    19.30000   152.34290   180.00000     4.41736     0.00000     0.00000     0.00000
    19.40000   152.14735   180.00000     4.41696     0.00000     0.00000     0.00000
    19.50000   152.00037   180.00000     4.41666     0.00000     0.00000     0.00000
    19.60000   151.85318   180.00000     4.41636     0.00000     0.00000     0.00000
    19.70000   151.70578   180.00000     4.41605     0.00000     0.00000     0.00000
    19.80000   151.55816   180.00000     4.41575     0.00000     0.00000     0.00000
    19.90000   151.41032   180.00000     4.41544     0.00000     0.00000     0.00000
    20.00000   151.26227   180.00000     4.41513     0.00000     0.00000     0.00000
    20.10000   151.11399   180.00000     4.41482     0.00000     0.00000     0.00000
    20.20000   150.96550   180.00000     4.41451     0.00000     0.00000     0.00000
    20.30000   150.81678   180.00000     4.41420     0.00000     0.00000     0.00000
    20.40000   150.66784   180.00000     4.41389     0.00000     0.00000     0.00000
    20.50000   150.51868   180.00000     4.41358     0.00000     0.00000     0.00000
    20.60000   150.36929   180.00000     4.41327     0.00000     0.00000     0.00000
    20.70000   150.21967   180.00000     4.41295     0.00000     0.00000     0.00000
    20.80000   150.06983   180.00000     4.41264     0.00000     0.00000     0.00000
    20.90000   149.91976   180.00000     4.41232     0.00000     0.00000     0.00000
    21.00000   149.76946   180.00000     4.41201     0.00000     0.00000     0.00000
    21.10000   149.61892   180.00000     4.41169     0.00000     0.00000     0.00000
    21.20000   149.41797   180.00000     4.41127     0.00000     0.00000     0.00000
    21.30000   149.26690   180.00000     4.41095     0.00000     0.00000     0.00000
    21.40000   149.11559   180.00000     4.41063     0.00000     0.00000     0.00000
    21.50000   148.96405   180.00000     4.41031     0.00000     0.00000     0.00000
    21.60000   148.81226   180.00000     4.40999     0.00000     0.00000     0.00000
    21.70000   148.66024   180.00000     4.40966     0.00000     0.00000     0.00000
    21.80000   148.50798   180.00000     4.40934     0.00000     0.00000     0.00000
    21.90000   148.35548   180.00000     4.40902     0.00000     0.00000     0.00000
    22.00000   148.20274   180.00000     4.40869     0.00000     0.00000     0.00000
    22.10000   148.04975   180.00000     4.40836     0.00000     0.00000     0.00000
    22.20000   147.89652   180.00000     4.40804     0.00000     0.00000     0.00000
    22.30000   147.74305   180.00000     4.40771     0.00000     0.00000     0.00000
    22.40000   147.58932   180.00000     4.40738     0.00000     0.00000     0.00000
    22.50000   147.43535   180.00000     4.40705     0.00000     0.00000     0.00000
    22.60000   147.28114   180.00000     4.40672     0.00000     0.00000     0.00000
    22.70000   147.12667   180.00000     4.40639     0.00000     0.00000     0.00000
    22.80000   146.97195   180.00000     4.40606     0.00000     0.00000     0.00000
    22.90000   146.81697   180.00000     4.40572     0.00000     0.00000     0.00000
    23.00000   146.66175   180.00000     4.40539     0.00000     0.00000     0.00000
    23.10000   146.50626   180.00000     4.40505     0.00000     0.00000     0.00000
    23.20000   146.35053   180.00000     4.40472     0.00000     0.00000     0.00000
    23.30000   146.19453   180.00000     4.40438     0.00000     0.00000     0.00000
    23.40000   146.03828   180.00000     4.40405     0.00000     0.00000     0.00000
    23.50000   145.88177   180.00000     4.40371     0.00000     0.00000     0.00000
    23.60000   145.72499   180.00000     4.40337     0.00000     0.00000     0.00000
    23.70000   145.56796   180.00000     4.40303     0.00000     0.00000     0.00000
    23.80000   145.41066   180.00000     4.40269     0.00000     0.00000     0.00000
    23.90000   145.30547   180.00000     4.40246     0.00000     0.00000     0.00000
    24.00000   145.14773   180.00000     4.40212     0.00000     0.00000     0.00000
    24.10000   144.98972   180.00000     4.40178     0.00000     0.00000     0.00000
    24.20000   144.83144   180.00000     4.40143     0.00000     0.00000     0.00000
    24.30000   144.67289   180.00000     4.40109     0.00000     0.00000     0.00000
    24.40000   144.51408   180.00000     4.40075     0.00000     0.00000     0.00000
    24.50000   144.35499   180.00000     4.40040     0.00000     0.00000     0.00000
    24.60000   144.19563   180.00000     4.40006     0.00000     0.00000     0.00000
    24.70000   144.03599   180.00000     4.39971     0.00000     0.00000     0.00000
    24.80000   143.87608   180.00000     4.39937     0.00000     0.00000     0.00000
    24.90000   143.71590   180.00000     4.39902     0.00000     0.00000     0.00000
    25.00000   143.55544   180.00000     4.39867     0.00000     0.00000     0.00000
    25.10000   143.39469   180.00000     4.39833     0.00000     0.00000     0.00000
    25.20000   143.23367   180.00000     4.39798     0.00000     0.00000     0.00000
    25.30000   143.07237   180.00000     4.39763     0.00000     0.00000     0.00000
    25.40000   142.91078   180.00000     4.39728     0.00000     0.00000     0.00000
    25.50000   142.74891   180.00000     4.39693     0.00000     0.00000     0.00000
    25.60000   142.64063   180.00000     4.39668     0.00000     0.00000     0.00000
    25.70000   142.47829   180.00000     4.39633     0.00000     0.00000     0.00000
    25.80000   142.31565   180.00000     4.39598     0.00000     0.00000     0.00000
    25.90000   142.15273   180.00000     4.39563     0.00000     0.00000     0.00000
    26.00000   141.98951   180.00000     4.39528     0.00000     0.00000     0.00000
    26.10000   141.82601   180.00000     4.39492     0.00000     0.00000     0.00000
    26.20000   141.66221   180.00000     4.39457     0.00000     0.00000     0.00000
    26.30000   141.49812   180.00000     4.39421     0.00000     0.00000     0.00000
    26.40000   141.33374   180.00000     4.39386     0.00000     0.00000     0.00000
    26.50000   141.16906   180.00000     4.39350     0.00000     0.00000     0.00000
    26.60000   141.00408   180.00000     4.39315     0.00000     0.00000     0.00000
    26.70000   140.89370   180.00000     4.39290     0.00000     0.00000     0.00000
    26.80000   140.72822   180.00000     4.39254     0.00000     0.00000     0.00000
    26.90000   140.56244   180.00000     4.39218     0.00000     0.00000     0.00000
    27.00000   140.39636   180.00000     4.39182     0.00000     0.00000     0.00000
    27.10000   140.22998   180.00000     4.39147     0.00000     0.00000     0.00000
    27.20000   140.06329   180.00000     4.39111     0.00000     0.00000     0.00000
    27.30000   139.89629   180.00000     4.39075     0.00000     0.00000     0.00000
    27.40000   139.72899   180.00000     4.39039     0.00000     0.00000     0.00000
    27.50000   139.56138   180.00000     4.39003     0.00000     0.00000     0.00000
    27.60000   139.44922   180.00000     4.38978     0.00000     0.00000     0.00000
    27.70000   139.28109   180.00000     4.38941     0.00000     0.00000     0.00000
    27.80000   139.11265   180.00000     4.38905     0.00000     0.00000     0.00000
    27.90000   138.94389   180.00000     4.38869     0.00000     0.00000     0.00000
    28.00000   138.77482   180.00000     4.38833     0.00000     0.00000     0.00000
    28.10000   138.60543   180.00000     4.38796     0.00000     0.00000     0.00000
    28.20000   138.43573   180.00000     4.38760     0.00000     0.00000     0.00000
    28.30000   138.32216   180.00000     4.38735     0.00000     0.00000     0.00000
    28.40000   138.15192   180.00000     4.38698     0.00000     0.00000     0.00000
    28.50000   137.98136   180.00000     4.38662     0.00000     0.00000     0.00000
    28.60000   137.81047   180.00000     4.38625     0.00000     0.00000     0.00000
    28.70000   137.63926   180.00000     4.38589     0.00000     0.00000     0.00000
    28.80000   137.46773   180.00000     4.38552     0.00000     0.00000     0.00000
    28.90000   137.35293   180.00000     4.38527     0.00000     0.00000     0.00000
    29.00000   137.18085   180.00000     4.38490     0.00000     0.00000     0.00000
    29.10000   137.00844   180.00000     4.38453     0.00000     0.00000     0.00000
    29.20000   136.83570   180.00000     4.38417     0.00000     0.00000     0.00000
    29.30000   136.66263   180.00000     4.38380     0.00000     0.00000     0.00000
    29.40000   136.48923   180.00000     4.38343     0.00000     0.00000     0.00000
    29.50000   136.37317   180.00000     4.38317     0.00000     0.00000     0.00000
    29.60000   136.19920   180.00000     4.38280     0.00000     0.00000     0.00000
    29.70000   136.02490   180.00000     4.38243     0.00000     0.00000     0.00000
    29.80000   135.85026   180.00000     4.38207     0.00000     0.00000     0.00000
    29.90000   135.67528   180.00000     4.38170     0.00000     0.00000     0.00000
    30.00000   135.49997   180.00000     4.38133     0.00000     0.00000     0.00000
    30.10000   135.38261   180.00000     4.38107     0.00000     0.00000     0.00000
    30.20000   135.20672   180.00000     4.38070     0.00000     0.00000     0.00000
    30.30000   135.03048   180.00000     4.38033     0.00000     0.00000     0.00000
    30.40000   134.85390   180.00000     4.37995     0.00000     0.00000     0.00000
    30.50000   134.67696   180.00000     4.37958     0.00000     0.00000     0.00000
    30.60000   134.55852   180.00000     4.37932     0.00000     0.00000     0.00000
    30.70000   134.38100   180.00000     4.37895     0.00000     0.00000     0.00000
    30.80000   134.20314   180.00000     4.37858     0.00000     0.00000     0.00000
    30.90000   134.02492   180.00000     4.37820     0.00000     0.00000     0.00000
    31.00000   133.84634   180.00000     4.37783     0.00000     0.00000     0.00000
    31.10000   133.72679   180.00000     4.37757     0.00000     0.00000     0.00000
    31.20000   133.54762   180.00000     4.37720     0.00000     0.00000     0.00000
    31.30000   133.36809   180.00000     4.37682     0.00000     0.00000     0.00000
    31.40000   133.18820   180.00000     4.37645     0.00000     0.00000     0.00000
    31.50000   133.00795   180.00000     4.37607     0.00000     0.00000     0.00000
    31.60000   132.88727   180.00000     4.37581     0.00000     0.00000     0.00000
    31.70000   132.70641   180.00000     4.37544     0.00000     0.00000     0.00000
    31.80000   132.52519   180.00000     4.37506     0.00000     0.00000     0.00000
    31.90000   132.34360   180.00000     4.37469     0.00000     0.00000     0.00000
    32.00000   132.16164   180.00000     4.37431     0.00000     0.00000     0.00000
    32.10000   132.03981   180.00000     4.37405     0.00000     0.00000     0.00000
    32.20000   131.85723   180.00000     4.37367     0.00000     0.00000     0.00000
    32.30000   131.67428   180.00000     4.37330     0.00000     0.00000     0.00000
    32.40000   131.49096   180.00000     4.37292     0.00000     0.00000     0.00000
    32.50000   131.36821   180.00000     4.37266     0.00000     0.00000     0.00000
    32.60000   131.18426   180.00000     4.37228     0.00000     0.00000     0.00000
    32.70000   130.99993   180.00000     4.37190     0.00000     0.00000     0.00000
    32.80000   130.81522   180.00000     4.37152     0.00000     0.00000     0.00000
    32.90000   130.63013   180.00000     4.37115     0.00000     0.00000     0.00000
    33.00000   130.50620   180.00000     4.37088     0.00000     0.00000     0.00000
    33.10000   130.32047   180.00000     4.37050     0.00000     0.00000     0.00000
    33.20000   130.13436   180.00000     4.37013     0.00000     0.00000     0.00000
    33.30000   129.94785   180.00000     4.36975     0.00000     0.00000     0.00000
    33.40000   129.82297   180.00000     4.36948     0.00000     0.00000     0.00000
    33.50000   129.63582   180.00000     4.36910     0.00000     0.00000     0.00000
    33.60000   129.44828   180.00000     4.36873     0.00000     0.00000     0.00000
    33.70000   129.26035   180.00000     4.36835     0.00000     0.00000     0.00000
    33.80000   129.13450   180.00000     4.36808     0.00000     0.00000     0.00000
    33.90000   128.94591   180.00000     4.36770     0.00000     0.00000     0.00000
    34.00000   128.75692   180.00000     4.36732     0.00000     0.00000     0.00000
    34.10000   128.56754   180.00000     4.36694     0.00000     0.00000     0.00000
    34.20000   128.44072   180.00000     4.36668     0.00000     0.00000     0.00000
    34.30000   128.25066   180.00000     4.36630     0.00000     0.00000     0.00000
    34.40000   128.06021   180.00000     4.36592     0.00000     0.00000     0.00000
    34.50000   127.86935   180.00000     4.36554     0.00000     0.00000     0.00000
    34.60000   127.67809   180.00000     4.36516     0.00000     0.00000     0.00000
    34.70000   127.55001   180.00000     4.36489     0.00000     0.00000     0.00000
    34.80000   127.35806   180.00000     4.36451     0.00000     0.00000     0.00000
    34.90000   127.16571   180.00000     4.36413     0.00000     0.00000     0.00000
    35.00000   126.97295   180.00000     4.36375     0.00000     0.00000     0.00000
    35.10000   126.84386   180.00000     4.36348     0.00000     0.00000     0.00000
    35.20000   126.65041   180.00000     4.36310     0.00000     0.00000     0.00000
    35.30000   126.45655   180.00000     4.36272     0.00000     0.00000     0.00000
    35.40000   126.26227   180.00000     4.36234     0.00000     0.00000     0.00000
    35.50000   126.13216   180.00000     4.36207     0.00000     0.00000     0.00000
    35.60000   125.93718   180.00000     4.36169     0.00000     0.00000     0.00000
    35.70000   125.74179   180.00000     4.36131     0.00000     0.00000     0.00000
    35.80000   125.54597   180.00000     4.36093     0.00000     0.00000     0.00000
    35.90000   125.41483   180.00000     4.36066     0.00000     0.00000     0.00000
    36.00000   125.21830   180.00000     4.36028     0.00000     0.00000     0.00000
    36.10000   125.02135   180.00000     4.35989     0.00000     0.00000     0.00000
    36.20000   124.82397   180.00000     4.35951     0.00000     0.00000     0.00000
    36.30000   124.62616   180.00000     4.35913     0.00000     0.00000     0.00000
    36.40000   124.49369   180.00000     4.35886     0.00000     0.00000     0.00000
    36.50000   124.29517   180.00000     4.35848     0.00000     0.00000     0.00000
    36.60000   124.09621   180.00000     4.35810     0.00000     0.00000     0.00000
    36.70000   123.89682   180.00000     4.35772     0.00000     0.00000     0.00000
    36.80000   123.76329   180.00000     4.35745     0.00000     0.00000     0.00000
    36.90000   123.56318   180.00000     4.35707     0.00000     0.00000     0.00000
    37.00000   123.36262   180.00000     4.35669     0.00000     0.00000     0.00000
    37.10000   123.16163   180.00000     4.35631     0.00000     0.00000     0.00000
    37.20000   122.96020   180.00000     4.35593     0.00000     0.00000     0.00000
    37.30000   122.82530   180.00000     4.35566     0.00000     0.00000     0.00000
    37.40000   122.62314   180.00000     4.35528     0.00000     0.00000     0.00000
    37.50000   122.42052   180.00000     4.35490     0.00000     0.00000     0.00000
    37.60000   122.21747   180.00000     4.35451     0.00000     0.00000     0.00000
    37.70000   122.01397   180.00000     4.35413     0.00000     0.00000     0.00000
    37.80000   121.87768   180.00000     4.35387     0.00000     0.00000     0.00000
    37.90000   121.67344   180.00000     4.35349     0.00000     0.00000     0.00000
    38.00000   121.46874   180.00000     4.35311     0.00000     0.00000     0.00000
    38.10000   121.26360   180.00000     4.35273     0.00000     0.00000     0.00000
    38.20000   121.05800   180.00000     4.35235     0.00000     0.00000     0.00000
    38.30000   120.92031   180.00000     4.35208     0.00000     0.00000     0.00000
    38.40000   120.71396   180.00000     4.35170     0.00000     0.00000     0.00000
    38.50000   120.50715   180.00000     4.35132     0.00000     0.00000     0.00000
    38.60000   120.29989   180.00000     4.35094     0.00000     0.00000     0.00000
    38.70000   120.09217   180.00000     4.35056     0.00000     0.00000     0.00000
    38.80000   119.88400   180.00000     4.35018     0.00000     0.00000     0.00000
    38.90000   119.67536   180.00000     4.34980     0.00000     0.00000     0.00000
    39.00000   119.53565   180.00000     4.34954     0.00000     0.00000     0.00000
    39.10000   119.32625   180.00000     4.34916     0.00000     0.00000     0.00000
    39.20000   119.11638   180.00000     4.34878     0.00000     0.00000     0.00000
    39.30000   118.90606   180.00000     4.34841     0.00000     0.00000     0.00000
    39.40000   118.69528   180.00000     4.34803     0.00000     0.00000     0.00000
    39.50000   118.48403   180.00000     4.34765     0.00000     0.00000     0.00000
    39.60000   118.27231   180.00000     4.34728     0.00000     0.00000     0.00000
    39.70000   118.06014   180.00000     4.34690     0.00000     0.00000     0.00000
    39.80000   117.91806   180.00000     4.34664     0.00000     0.00000     0.00000
    39.90000   117.70511   180.00000     4.34626     0.00000     0.00000     0.00000
    40.00000   117.49169   180.00000     4.34589     0.00000     0.00000     0.00000
