 # applied field (T), theta (degree), phi (degree), abs for RE 3-4
     0.00000    90.00000   262.26259     0.15231    90.00000   187.73741     0.15231
     0.10000    90.00000   248.74621     0.17210    90.00000   185.26558     0.16249
     0.20000    90.00000   237.54063     0.19148    90.00000   183.63044     0.16951
     0.30000    90.00000   226.94055     0.21286    90.00000   182.37563     0.17506
     0.40000    90.00000   215.49888     0.23897    90.00000   181.32543     0.17987
     0.50000    90.00000   205.04468     0.26371    90.00000   180.65235     0.18312
     0.60000    90.00000   188.84376     0.29335    90.00000   180.11934     0.18594
     0.70000    90.00000   180.00000     0.29832    90.00000   180.00000     0.18624
     0.80000    90.00000   180.00000     0.29815    90.00000   180.00000     0.18611
     0.90000    90.00000   180.00000     0.29798    90.00000   180.00000     0.18597
     1.00000    90.00000   180.00000     0.29781    90.00000   180.00000     0.18584
     1.10000    90.00000   180.00000     0.29763    90.00000   180.00000     0.18571
     1.20000    90.00000   180.00000     0.29746    90.00000   180.00000     0.18558
     1.30000    90.00000   180.00000     0.29729    90.00000   180.00000     0.18545
     1.40000    90.00000   180.00000     0.29712    90.00000   180.00000     0.18531
     1.50000    90.00000   180.00000     0.29695    90.00000   180.00000     0.18518
     1.60000    90.00000   180.00000     0.29677    90.00000   180.00000     0.18505
     1.70000    90.00000   180.00000     0.29660    90.00000   180.00000     0.18492
     1.80000    90.00000   180.00000     0.29643    90.00000   180.00000     0.18479
     1.90000    90.00000   180.00000     0.29626    90.00000   180.00000     0.18466
     2.00000    90.00000   180.00000     0.29609    90.00000   180.00000     0.18452
     2.10000    90.00000   180.00000     0.29592    90.00000   180.00000     0.18439
     2.20000    90.00000   180.00000     0.29574    90.00000   180.00000     0.18426
     2.30000    90.00000   180.00000     0.29557    90.00000   180.00000     0.18413
     2.40000    90.00000   180.00000     0.29540    90.00000   180.00000     0.18400
     2.50000    90.00000   180.00000     0.29523    90.00000   180.00000     0.18387
     2.60000    90.00000   180.00000     0.29506    90.00000   180.00000     0.18373
     2.70000    90.00000   180.00000     0.29489    90.00000   180.00000     0.18360
     2.80000    90.00000   180.00000     0.29471    90.00000   180.00000     0.18347
     2.90000    90.00000   180.00000     0.29454    90.00000   180.00000     0.18334
     3.00000    90.00000   180.00000     0.29437    90.00000   180.00000     0.18321
     3.10000    90.00000   180.00000     0.29420    90.00000   180.00000     0.18308
     3.20000    90.00000   180.00000     0.29403    90.00000   180.00000     0.18294
     3.30000    90.00000   180.00000     0.29386    90.00000   180.00000     0.18281
     3.40000    90.00000   180.00000     0.29369    90.00000   180.00000     0.18268
     3.50000    90.00000   180.00000     0.29351    90.00000   180.00000     0.18255
     3.60000    90.00000   180.00000     0.29334    90.00000   180.00000     0.18242
     3.70000    90.00000   180.00000     0.29317    90.00000   180.00000     0.18229
     3.80000    90.00000   180.00000     0.29300    90.00000   180.00000     0.18216
     3.90000    90.00000   180.00000     0.29283    90.00000   180.00000     0.18202
     4.00000    90.00000   180.00000     0.29266    90.00000   180.00000     0.18189
     4.10000    90.00000   180.00000     0.29249    90.00000   180.00000     0.18176
     4.20000    90.00000   180.00000     0.29232    90.00000   180.00000     0.18163
     4.30000    90.00000   180.00000     0.29215    90.00000   180.00000     0.18150
     4.40000    90.00000   180.00000     0.29197    90.00000   180.00000     0.18137
     4.50000    90.00000   180.00000     0.29180    90.00000   180.00000     0.18124
     4.60000    90.00000   180.00000     0.29163    90.00000   180.00000     0.18110
     4.70000    90.00000   180.00000     0.29146    90.00000   180.00000     0.18097
     4.80000    90.00000   180.00000     0.29129    90.00000   180.00000     0.18084
     4.90000    90.00000   180.00000     0.29112    90.00000   180.00000     0.18071
     5.00000    90.00000   180.00000     0.29095    90.00000   180.00000     0.18058
     5.10000    90.00000   180.00000     0.29078    90.00000   180.00000     0.18045
     5.20000    90.00000   180.00000     0.29061    90.00000   180.00000     0.18032
     5.30000    90.00000   180.00000     0.29044    90.00000   180.00000     0.18018
     5.40000    90.00000   180.00000     0.29026    90.00000   180.00000     0.18005
     5.50000    90.00000   180.00000     0.29009    90.00000   180.00000     0.17992
     5.60000    90.00000   180.00000     0.28992    90.00000   180.00000     0.17979
     5.70000    90.00000   180.00000     0.28975    90.00000   180.00000     0.17966
     5.80000    90.00000   180.00000     0.28958    90.00000   180.00000     0.17953
     5.90000    90.00000   180.00000     0.28941    90.00000   180.00000     0.17940
     6.00000    90.00000   180.00000     0.28924    90.00000   180.00000     0.17927
     6.10000    90.00000   180.00000     0.28907    90.00000   180.00000     0.17913
     6.20000    90.00000   180.00000     0.28890    90.00000   180.00000     0.17900
     6.30000    90.00000   180.00000     0.28873    90.00000   180.00000     0.17887
     6.40000    90.00000   180.00000     0.28856    90.00000   180.00000     0.17874
     6.50000    90.00000   180.00000     0.28839    90.00000   180.00000     0.17861
     6.60000    90.00000   180.00000     0.28822    90.00000   180.00000     0.17848
     6.70000    90.00000   180.00000     0.28805    90.00000   180.00000     0.17835
     6.80000    90.00000   180.00000     0.28788    90.00000   180.00000     0.17822
     6.90000    90.00000   180.00000     0.28771    90.00000   180.00000     0.17809
     7.00000    90.00000   180.00000     0.28754    90.00000   180.00000     0.17795
     7.10000    90.00000   180.00000     0.28737    90.00000   180.00000     0.17782
     7.20000    90.00000   180.00000     0.28720    90.00000   180.00000     0.17769
     7.30000    90.00000   180.00000     0.28702    90.00000   180.00000     0.17756
     7.40000    90.00000   180.00000     0.28685    90.00000   180.00000     0.17743
     7.50000    90.00000   180.00000     0.28668    90.00000   180.00000     0.17730
     7.60000    90.00000   180.00000     0.28651    90.00000   180.00000     0.17717
     7.70000    90.00000   180.00000     0.28634    90.00000   180.00000     0.17704
     7.80000    90.00000   180.00000     0.28617    90.00000   180.00000     0.17691
     7.90000    90.00000   180.00000     0.28600    90.00000   180.00000     0.17677
     8.00000    90.00000   180.00000     0.28583    90.00000   180.00000     0.17664
     8.10000    90.00000   180.00000     0.28566    90.00000   180.00000     0.17651
     8.20000    90.00000   180.00000     0.28549    90.00000   180.00000     0.17638
     8.30000    90.00000   180.00000     0.28532    90.00000   180.00000     0.17625
     8.40000    90.00000   180.00000     0.28515    90.00000   180.00000     0.17612
     8.50000    90.00000   180.00000     0.28498    90.00000   180.00000     0.17599
     8.60000    90.00000   180.00000     0.28481    90.00000   180.00000     0.17586
     8.70000    90.00000   180.00000     0.28464    90.00000   180.00000     0.17573
     8.80000    90.00000   180.00000     0.28447    90.00000   180.00000     0.17560
     8.90000    90.00000   180.00000     0.28430    90.00000   180.00000     0.17547
     9.00000    90.00000   180.00000     0.28413    90.00000   180.00000     0.17533
     9.10000    90.00000   180.00000     0.28396    90.00000   180.00000     0.17520
     9.20000    90.00000   180.00000     0.28379    90.00000   180.00000     0.17507
     9.30000    90.00000   180.00000     0.28363    90.00000   180.00000     0.17494
     9.40000    90.00000   180.00000     0.28346    90.00000   180.00000     0.17481
     9.50000    90.00000   180.00000     0.28329    90.00000   180.00000     0.17468
     9.60000    90.00000   180.00000     0.28312    90.00000   180.00000     0.17455
     9.70000    90.00000   180.00000     0.28295    90.00000   180.00000     0.17442
     9.80000    90.00000   180.00000     0.28278    90.00000   180.00000     0.17429
     9.90000    90.00000   180.00000     0.28261    90.00000   180.00000     0.17416
    10.00000    90.00000   180.00000     0.28244    90.00000   180.00000     0.17403
    10.10000    90.00000   180.00000     0.28227    90.00000   180.00000     0.17390
    10.20000    90.00000   180.00000     0.28210    90.00000   180.00000     0.17377
    10.30000    90.00000   180.00000     0.28193    90.00000   180.00000     0.17363
    10.40000    90.00000   180.00000     0.28176    90.00000   180.00000     0.17350
    10.50000    90.00000   180.00000     0.28159    90.00000   180.00000     0.17337
    10.60000    90.00000   180.00000     0.28142    90.00000   180.00000     0.17324
    10.70000    90.00000   180.00000     0.28125    90.00000   180.00000     0.17311
    10.80000    90.00000   180.00000     0.28108    90.00000   180.00000     0.17298
    10.90000    90.00000   180.00000     0.28091    90.00000   180.00000     0.17285
    11.00000    90.00000   180.00000     0.28074    90.00000   180.00000     0.17272
    11.10000    90.00000   180.00000     0.28057    90.00000   180.00000     0.17259
    11.20000    90.00000   180.00000     0.28041    90.00000   180.00000     0.17246
    11.30000    90.00000   180.00000     0.28024    90.00000   180.00000     0.17233
    11.40000    90.00000   180.00000     0.28007    90.00000   180.00000     0.17220
    11.50000    90.00000   180.00000     0.27990    90.00000   180.00000     0.17207
    11.60000    90.00000   180.00000     0.27973    90.00000   180.00000     0.17194
    11.70000    90.00000   180.00000     0.27956    90.00000   180.00000     0.17181
    11.80000    90.00000   180.00000     0.27939    90.00000   180.00000     0.17167
    11.90000    90.00000   180.00000     0.27922    90.00000   180.00000     0.17154
    12.00000    90.00000   180.00000     0.27905    90.00000   180.00000     0.17141
    12.10000    90.00000   180.00000     0.27888    90.00000   180.00000     0.17128
    12.20000    90.00000   180.00000     0.27871    90.00000   180.00000     0.17115
    12.30000    90.00000   180.00000     0.27855    90.00000   180.00000     0.17102
    12.40000    90.00000   180.00000     0.27838    90.00000   180.00000     0.17089
    12.50000    90.00000   180.00000     0.27821    90.00000   180.00000     0.17076
    12.60000    90.00000   180.00000     0.27804    90.00000   180.00000     0.17063
    12.70000    90.00000   180.00000     0.27787    90.00000   180.00000     0.17050
    12.80000    90.00000   180.00000     0.27770    90.00000   180.00000     0.17037
    12.90000    90.00000   180.00000     0.27753    90.00000   180.00000     0.17024
    13.00000    90.00000   180.00000     0.27736    90.00000   180.00000     0.17011
    13.10000    90.00000   180.00000     0.27719    90.00000   180.00000     0.16998
    13.20000    90.00000   180.00000     0.27703    90.00000   180.00000     0.16985
    13.30000    90.00000   180.00000     0.27686    90.00000   180.00000     0.16972
    13.40000    90.00000   180.00000     0.27669    90.00000   180.00000     0.16959
    13.50000    90.00000   180.00000     0.27652    90.00000   180.00000     0.16946
    13.60000    90.00000   180.00000     0.27635    90.00000   180.00000     0.16933
    13.70000    90.00000   180.00000     0.27618    90.00000   180.00000     0.16920
    13.80000    90.00000   180.00000     0.27601    90.00000   180.00000     0.16907
    13.90000    90.00000   180.00000     0.27585    90.00000   180.00000     0.16894
    14.00000    90.00000   180.00000     0.27568    90.00000   180.00000     0.16881
    14.10000    90.00000   180.00000     0.27551    90.00000   180.00000     0.16868
    14.20000    90.00000   180.00000     0.27534    90.00000   180.00000     0.16854
    14.30000    90.00000   180.00000     0.27517    90.00000   180.00000     0.16841
    14.40000    90.00000   180.00000     0.27500    90.00000   180.00000     0.16828
    14.50000    90.00000   180.00000     0.27483    90.00000   180.00000     0.16815
    14.60000    90.00000   180.00000     0.27467    90.00000   180.00000     0.16802
    14.70000    90.00000   180.00000     0.27450    90.00000   180.00000     0.16789
    14.80000    90.00000   180.00000     0.27433    90.00000   180.00000     0.16776
    14.90000    90.00000   180.00000     0.27416    90.00000   180.00000     0.16763
    15.00000    90.00000   180.00000     0.27399    90.00000   180.00000     0.16750
    15.10000    90.00000   180.00000     0.27382    90.00000   180.00000     0.16737
    15.20000    90.00000   180.00000     0.27366    90.00000   180.00000     0.16724
    15.30000    90.00000   180.00000     0.27349    90.00000   180.00000     0.16711
    15.40000    90.00000   180.00000     0.27332    90.00000   180.00000     0.16698
    15.50000    90.00000   180.00000     0.27315    90.00000   180.00000     0.16685
    15.60000    90.00000   180.00000     0.27298    90.00000   180.00000     0.16672
    15.70000    90.00000   180.00000     0.27281    90.00000   180.00000     0.16659
    15.80000    90.00000   180.00000     0.27265    90.00000   180.00000     0.16646
    15.90000    90.00000   180.00000     0.27248    90.00000   180.00000     0.16633
    16.00000    90.00000   180.00000     0.27231    90.00000   180.00000     0.16620
    16.10000    90.00000   180.00000     0.27214    90.00000   180.00000     0.16607
    16.20000    90.00000   180.00000     0.27197    90.00000   180.00000     0.16594
    16.30000    90.00000   180.00000     0.27181    90.00000   180.00000     0.16581
    16.40000    90.00000   180.00000     0.27164    90.00000   180.00000     0.16568
    16.50000    90.00000   180.00000     0.27147    90.00000   180.00000     0.16555
    16.60000    90.00000   180.00000     0.27130    90.00000   180.00000     0.16542
    16.70000    90.00000   180.00000     0.27113    90.00000   180.00000     0.16529
    16.80000    90.00000   180.00000     0.27097    90.00000   180.00000     0.16516
    16.90000    90.00000   180.00000     0.27080    90.00000   180.00000     0.16503
    17.00000    90.00000   180.00000     0.27063    90.00000   180.00000     0.16490
    17.10000    90.00000   180.00000     0.27046    90.00000   180.00000     0.16477
    17.20000    90.00000   180.00000     0.27030    90.00000   180.00000     0.16464
    17.30000    90.00000   180.00000     0.27013    90.00000   180.00000     0.16451
    17.40000    90.00000   180.00000     0.26996    90.00000   180.00000     0.16438
    17.50000    90.00000   180.00000     0.26979    90.00000   180.00000     0.16425
    17.60000    90.00000   180.00000     0.26962    90.00000   180.00000     0.16412
    17.70000    90.00000   180.00000     0.26946    90.00000   180.00000     0.16399
    17.80000    90.00000   180.00000     0.26929    90.00000   180.00000     0.16386
    17.90000    90.00000   180.00000     0.26912    90.00000   180.00000     0.16373
    18.00000    90.00000   180.00000     0.26895    90.00000   180.00000     0.16360
    18.10000    90.00000   180.00000     0.26879    90.00000   180.00000     0.16347
    18.20000    90.00000   180.00000     0.26862    90.00000   180.00000     0.16334
    18.30000    90.00000   180.00000     0.26845    90.00000   180.00000     0.16321
    18.40000    90.00000   180.00000     0.26828    90.00000   180.00000     0.16308
    18.50000    90.00000   180.00000     0.26812    90.00000   180.00000     0.16295
    18.60000    90.00000   180.00000     0.26795    90.00000   180.00000     0.16282
    18.70000    90.00000   180.00000     0.26778    90.00000   180.00000     0.16269
    18.80000    90.00000   180.00000     0.26762    90.00000   180.00000     0.16256
    18.90000    90.00000   180.00000     0.26745    90.00000   180.00000     0.16243
    19.00000    90.00000   180.00000     0.26728    90.00000   180.00000     0.16230
    19.10000    90.00000   180.00000     0.26711    90.00000   180.00000     0.16217
    19.20000    90.00000   180.00000     0.26695    90.00000   180.00000     0.16205
    19.30000    90.00000   180.00000     0.26678    90.00000   180.00000     0.16192
    19.40000    90.00000   180.00000     0.26661    90.00000   180.00000     0.16179
    19.50000    90.00000   180.00000     0.26644    90.00000   180.00000     0.16166
    19.60000    90.00000   180.00000     0.26628    90.00000   180.00000     0.16153
    19.70000    90.00000   180.00000     0.26611    90.00000   180.00000     0.16140
    19.80000    90.00000   180.00000     0.26594    90.00000   180.00000     0.16127
    19.90000    90.00000   180.00000     0.26578    90.00000   180.00000     0.16114
    20.00000    90.00000   180.00000     0.26561    90.00000   180.00000     0.16101
    20.10000    90.00000   180.00000     0.26544    90.00000   180.00000     0.16088
    20.20000    90.00000   180.00000     0.26527    90.00000   180.00000     0.16075
    20.30000    90.00000   180.00000     0.26511    90.00000   180.00000     0.16062
    20.40000    90.00000   180.00000     0.26494    90.00000   180.00000     0.16049
    20.50000    90.00000   180.00000     0.26477    90.00000   180.00000     0.16036
    20.60000    90.00000   180.00000     0.26461    90.00000   180.00000     0.16023
    20.70000    90.00000   180.00000     0.26444    90.00000   180.00000     0.16010
    20.80000    90.00000   180.00000     0.26427    90.00000   180.00000     0.15997
    20.90000    90.00000   180.00000     0.26411    90.00000   180.00000     0.15984
    21.00000    90.00000   180.00000     0.26394    90.00000   180.00000     0.15971
    21.10000    90.00000   180.00000     0.26377    90.00000   180.00000     0.15958
    21.20000    90.00000   180.00000     0.26361    90.00000   180.00000     0.15945
    21.30000    90.00000   180.00000     0.26344    90.00000   180.00000     0.15932
    21.40000    90.00000   180.00000     0.26327    90.00000   180.00000     0.15919
    21.50000    90.00000   180.00000     0.26311    90.00000   180.00000     0.15906
    21.60000    90.00000   180.00000     0.26294    90.00000   180.00000     0.15894
    21.70000    90.00000   180.00000     0.26277    90.00000   180.00000     0.15881
    21.80000    90.00000   180.00000     0.26261    90.00000   180.00000     0.15868
    21.90000    90.00000   180.00000     0.26244    90.00000   180.00000     0.15855
    22.00000    90.00000   180.00000     0.26227    90.00000   180.00000     0.15842
    22.10000    90.00000   180.00000     0.26211    90.00000   180.00000     0.15829
    22.20000    90.00000   180.00000     0.26194    90.00000   180.00000     0.15816
    22.30000    90.00000   180.00000     0.26177    90.00000   180.00000     0.15803
    22.40000    90.00000   180.00000     0.26161    90.00000   180.00000     0.15790
    22.50000    90.00000   180.00000     0.26144    90.00000   180.00000     0.15777
    22.60000    90.00000   180.00000     0.26127    90.00000   180.00000     0.15764
    22.70000    90.00000   180.00000     0.26111    90.00000   180.00000     0.15751
    22.80000    90.00000   180.00000     0.26094    90.00000   180.00000     0.15738
    22.90000    90.00000   180.00000     0.26077    90.00000   180.00000     0.15725
    23.00000    90.00000   180.00000     0.26061    90.00000   180.00000     0.15712
    23.10000    90.00000   180.00000     0.26044    90.00000   180.00000     0.15699
    23.20000    90.00000   180.00000     0.26027    90.00000   180.00000     0.15687
    23.30000    90.00000   180.00000     0.26011    90.00000   180.00000     0.15674
    23.40000    90.00000   180.00000     0.25994    90.00000   180.00000     0.15661
    23.50000    90.00000   180.00000     0.25978    90.00000   180.00000     0.15648
    23.60000    90.00000   180.00000     0.25961    90.00000   180.00000     0.15635
    23.70000    90.00000   180.00000     0.25944    90.00000   180.00000     0.15622
    23.80000    90.00000   180.00000     0.25928    90.00000   180.00000     0.15609
    23.90000    90.00000   180.00000     0.25911    90.00000   180.00000     0.15596
    24.00000    90.00000   180.00000     0.25894    90.00000   180.00000     0.15583
    24.10000    90.00000   180.00000     0.25878    90.00000   180.00000     0.15570
    24.20000    90.00000   180.00000     0.25861    90.00000   180.00000     0.15557
    24.30000    90.00000   180.00000     0.25845    90.00000   180.00000     0.15544
    24.40000    90.00000   180.00000     0.25828    90.00000   180.00000     0.15531
    24.50000    90.00000   180.00000     0.25811    90.00000   180.00000     0.15519
    24.60000    90.00000   180.00000     0.25795    90.00000   180.00000     0.15506
    24.70000    90.00000   180.00000     0.25778    90.00000   180.00000     0.15493
    24.80000    90.00000   180.00000     0.25762    90.00000   180.00000     0.15480
    24.90000    90.00000   180.00000     0.25745    90.00000   180.00000     0.15467
    25.00000    90.00000   180.00000     0.25728    90.00000   180.00000     0.15454
    25.10000    90.00000   180.00000     0.25712    90.00000   180.00000     0.15441
    25.20000    90.00000   180.00000     0.25695    90.00000   180.00000     0.15428
    25.30000    90.00000   180.00000     0.25679    90.00000   180.00000     0.15415
    25.40000    90.00000   180.00000     0.25662    90.00000   180.00000     0.15402
    25.50000    90.00000   180.00000     0.25645    90.00000   180.00000     0.15389
    25.60000    90.00000   180.00000     0.25629    90.00000   180.00000     0.15377
    25.70000    90.00000   180.00000     0.25612    90.00000   180.00000     0.15364
    25.80000    90.00000   180.00000     0.25596    90.00000   180.00000     0.15351
    25.90000    90.00000   180.00000     0.25579    90.00000   180.00000     0.15338
    26.00000    90.00000   180.00000     0.25562    90.00000   180.00000     0.15325
    26.10000    90.00000   180.00000     0.25546    90.00000   180.00000     0.15312
    26.20000    90.00000   180.00000     0.25529    90.00000   180.00000     0.15299
    26.30000    90.00000   180.00000     0.25513    90.00000   180.00000     0.15286
    26.40000    90.00000   180.00000     0.25496    90.00000   180.00000     0.15273
    26.50000    90.00000   180.00000     0.25480    90.00000   180.00000     0.15261
    26.60000    90.00000   180.00000     0.25463    90.00000   180.00000     0.15248
    26.70000    90.00000   180.00000     0.25446    90.00000   180.00000     0.15235
    26.80000    90.00000   180.00000     0.25430    90.00000   180.00000     0.15222
    26.90000    90.00000   180.00000     0.25413    90.00000   180.00000     0.15209
    27.00000    90.00000   180.00000     0.25397    90.00000   180.00000     0.15196
    27.10000    90.00000   180.00000     0.25380    90.00000   180.00000     0.15183
    27.20000    90.00000   180.00000     0.25364    90.00000   180.00000     0.15170
    27.30000    90.00000   180.00000     0.25347    90.00000   180.00000     0.15157
    27.40000    90.00000   180.00000     0.25331    90.00000   180.00000     0.15145
    27.50000    90.00000   180.00000     0.25314    90.00000   180.00000     0.15132
    27.60000    90.00000   180.00000     0.25297    90.00000   180.00000     0.15119
    27.70000    90.00000   180.00000     0.25281    90.00000   180.00000     0.15106
    27.80000    90.00000   180.00000     0.25264    90.00000   180.00000     0.15093
    27.90000    90.00000   180.00000     0.25248    90.00000   180.00000     0.15080
    28.00000    90.00000   180.00000     0.25231    90.00000   180.00000     0.15067
    28.10000    90.00000   180.00000     0.25215    90.00000   180.00000     0.15054
    28.20000    90.00000   180.00000     0.25198    90.00000   180.00000     0.15042
    28.30000    90.00000   180.00000     0.25182    90.00000   180.00000     0.15029
    28.40000    90.00000   180.00000     0.25165    90.00000   180.00000     0.15016
    28.50000    90.00000   180.00000     0.25149    90.00000   180.00000     0.15003
    28.60000    90.00000   180.00000     0.25132    90.00000   180.00000     0.14990
    28.70000    90.00000   180.00000     0.25116    90.00000   180.00000     0.14977
    28.80000    90.00000   180.00000     0.25099    90.00000   180.00000     0.14964
    28.90000    90.00000   180.00000     0.25082    90.00000   180.00000     0.14951
    29.00000    90.00000   180.00000     0.25066    90.00000   180.00000     0.14939
    29.10000    90.00000   180.00000     0.25049    90.00000   180.00000     0.14926
    29.20000    90.00000   180.00000     0.25033    90.00000   180.00000     0.14913
    29.30000    90.00000   180.00000     0.25016    90.00000   180.00000     0.14900
    29.40000    90.00000   180.00000     0.25000    90.00000   180.00000     0.14887
    29.50000    90.00000   180.00000     0.24983    90.00000   180.00000     0.14874
    29.60000    90.00000   180.00000     0.24967    90.00000   180.00000     0.14861
    29.70000    90.00000   180.00000     0.24950    90.00000   180.00000     0.14849
    29.80000    90.00000   180.00000     0.24934    90.00000   180.00000     0.14836
    29.90000    90.00000   180.00000     0.24917    90.00000   180.00000     0.14823
    30.00000    90.00000   180.00000     0.24901    90.00000   180.00000     0.14810
    30.10000    90.00000   180.00000     0.24884    90.00000   180.00000     0.14797
    30.20000    90.00000   180.00000     0.24868    90.00000   180.00000     0.14784
    30.30000    90.00000   180.00000     0.24851    90.00000   180.00000     0.14771
    30.40000    90.00000   180.00000     0.24835    90.00000   180.00000     0.14759
    30.50000    90.00000   180.00000     0.24818    90.00000   180.00000     0.14746
    30.60000    90.00000   180.00000     0.24802    90.00000   180.00000     0.14733
    30.70000    90.00000   180.00000     0.24786    90.00000   180.00000     0.14720
    30.80000    90.00000   180.00000     0.24769    90.00000   180.00000     0.14707
    30.90000    90.00000   180.00000     0.24753    90.00000   180.00000     0.14694
    31.00000    90.00000   180.00000     0.24736    90.00000   180.00000     0.14682
    31.10000    90.00000   180.00000     0.24720    90.00000   180.00000     0.14669
    31.20000    90.00000   180.00000     0.24703    90.00000   180.00000     0.14656
    31.30000    90.00000   180.00000     0.24687    90.00000   180.00000     0.14643
    31.40000    90.00000   180.00000     0.24670    90.00000   180.00000     0.14630
    31.50000    90.00000   180.00000     0.24654    90.00000   180.00000     0.14617
    31.60000    90.00000   180.00000     0.24637    90.00000   180.00000     0.14604
    31.70000    90.00000   180.00000     0.24621    90.00000   180.00000     0.14592
    31.80000    90.00000   180.00000     0.24604    90.00000   180.00000     0.14579
    31.90000    90.00000   180.00000     0.24588    90.00000   180.00000     0.14566
    32.00000    90.00000   180.00000     0.24571    90.00000   180.00000     0.14553
    32.10000    90.00000   180.00000     0.24555    90.00000   180.00000     0.14540
    32.20000    90.00000   180.00000     0.24539    90.00000   180.00000     0.14527
    32.30000    90.00000   180.00000     0.24522    90.00000   180.00000     0.14515
    32.40000    90.00000   180.00000     0.24506    90.00000   180.00000     0.14502
    32.50000    90.00000   180.00000     0.24489    90.00000   180.00000     0.14489
    32.60000    90.00000   180.00000     0.24473    90.00000   180.00000     0.14476
    32.70000    90.00000   180.00000     0.24456    90.00000   180.00000     0.14463
    32.80000    90.00000   180.00000     0.24440    90.00000   180.00000     0.14451
    32.90000    90.00000   180.00000     0.24423    90.00000   180.00000     0.14438
    33.00000    90.00000   180.00000     0.24407    90.00000   180.00000     0.14425
    33.10000    90.00000   180.00000     0.24391    90.00000   180.00000     0.14412
    33.20000    90.00000   180.00000     0.24374    90.00000   180.00000     0.14399
    33.30000    90.00000   180.00000     0.24358    90.00000   180.00000     0.14386
    33.40000    90.00000   180.00000     0.24341    90.00000   180.00000     0.14374
    33.50000    90.00000   180.00000     0.24325    90.00000   180.00000     0.14361
    33.60000    90.00000   180.00000     0.24308    90.00000   180.00000     0.14348
    33.70000    90.00000   180.00000     0.24292    90.00000   180.00000     0.14335
    33.80000    90.00000   180.00000     0.24276    90.00000   180.00000     0.14322
    33.90000    90.00000   180.00000     0.24259    90.00000   180.00000     0.14310
    34.00000    90.00000   180.00000     0.24243    90.00000   180.00000     0.14297
    34.10000    90.00000   180.00000     0.24226    90.00000   180.00000     0.14284
    34.20000    90.00000   180.00000     0.24210    90.00000   180.00000     0.14271
    34.30000    90.00000   180.00000     0.24194    90.00000   180.00000     0.14258
    34.40000    90.00000   180.00000     0.24177    90.00000   180.00000     0.14245
    34.50000    90.00000   180.00000     0.24161    90.00000   180.00000     0.14233
    34.60000    90.00000   180.00000     0.24144    90.00000   180.00000     0.14220
    34.70000    90.00000   180.00000     0.24128    90.00000   180.00000     0.14207
    34.80000    90.00000   180.00000     0.24112    90.00000   180.00000     0.14194
    34.90000    90.00000   180.00000     0.24095    90.00000   180.00000     0.14181
    35.00000    90.00000   180.00000     0.24079    90.00000   180.00000     0.14169
    35.10000    90.00000   180.00000     0.24062    90.00000   180.00000     0.14156
    35.20000    90.00000   180.00000     0.24046    90.00000   180.00000     0.14143
    35.30000    90.00000   180.00000     0.24030    90.00000   180.00000     0.14130
    35.40000    90.00000   180.00000     0.24013    90.00000   180.00000     0.14117
    35.50000    90.00000   180.00000     0.23997    90.00000   180.00000     0.14105
    35.60000    90.00000   180.00000     0.23980    90.00000   180.00000     0.14092
    35.70000    90.00000   180.00000     0.23964    90.00000   180.00000     0.14079
    35.80000    90.00000   180.00000     0.23948    90.00000   180.00000     0.14066
    35.90000    90.00000   180.00000     0.23931    90.00000   180.00000     0.14054
    36.00000    90.00000   180.00000     0.23915    90.00000   180.00000     0.14041
    36.10000    90.00000   180.00000     0.23898    90.00000   180.00000     0.14028
    36.20000    90.00000   180.00000     0.23882    90.00000   180.00000     0.14015
    36.30000    90.00000   180.00000     0.23866    90.00000   180.00000     0.14002
    36.40000    90.00000   180.00000     0.23849    90.00000   180.00000     0.13990
    36.50000    90.00000   180.00000     0.23833    90.00000   180.00000     0.13977
    36.60000    90.00000   180.00000     0.23816    90.00000   180.00000     0.13964
    36.70000    90.00000   180.00000     0.23800    90.00000   180.00000     0.13951
    36.80000    90.00000   180.00000     0.23784    90.00000   180.00000     0.13938
    36.90000    90.00000   180.00000     0.23767    90.00000   180.00000     0.13926
    37.00000    90.00000   180.00000     0.23751    90.00000   180.00000     0.13913
    37.10000    90.00000   180.00000     0.23735    90.00000   180.00000     0.13900
    37.20000    90.00000   180.00000     0.23718    90.00000   180.00000     0.13887
    37.30000    90.00000   180.00000     0.23702    90.00000   180.00000     0.13875
    37.40000    90.00000   180.00000     0.23685    90.00000   180.00000     0.13862
    37.50000    90.00000   180.00000     0.23669    90.00000   180.00000     0.13849
    37.60000    90.00000   180.00000     0.23653    90.00000   180.00000     0.13836
    37.70000    90.00000   180.00000     0.23636    90.00000   180.00000     0.13823
    37.80000    90.00000   180.00000     0.23620    90.00000   180.00000     0.13811
    37.90000    90.00000   180.00000     0.23604    90.00000   180.00000     0.13798
    38.00000    90.00000   180.00000     0.23587    90.00000   180.00000     0.13785
    38.10000    90.00000   180.00000     0.23571    90.00000   180.00000     0.13772
    38.20000    90.00000   180.00000     0.23555    90.00000   180.00000     0.13760
    38.30000    90.00000   180.00000     0.23538    90.00000   180.00000     0.13747
    38.40000    90.00000   180.00000     0.23522    90.00000   180.00000     0.13734
    38.50000    90.00000   180.00000     0.23505    90.00000   180.00000     0.13721
    38.60000    90.00000   180.00000     0.23489    90.00000   180.00000     0.13709
    38.70000    90.00000   180.00000     0.23473    90.00000   180.00000     0.13696
    38.80000    90.00000   180.00000     0.23456    90.00000   180.00000     0.13683
    38.90000    90.00000   180.00000     0.23440    90.00000   180.00000     0.13670
    39.00000    90.00000   180.00000     0.23424    90.00000   180.00000     0.13658
    39.10000    90.00000   180.00000     0.23407    90.00000   180.00000     0.13645
    39.20000    90.00000   180.00000     0.23391    90.00000   180.00000     0.13632
    39.30000    90.00000   180.00000     0.23375    90.00000   180.00000     0.13619
    39.40000    90.00000   180.00000     0.23358    90.00000   180.00000     0.13606
    39.50000    90.00000   180.00000     0.23342    90.00000   180.00000     0.13594
    39.60000    90.00000   180.00000     0.23326    90.00000   180.00000     0.13581
    39.70000    90.00000   180.00000     0.23309    90.00000   180.00000     0.13568
    39.80000    90.00000   180.00000     0.23293    90.00000   180.00000     0.13555
    39.90000    90.00000   180.00000     0.23277    90.00000   180.00000     0.13543
    40.00000    90.00000   180.00000     0.23260    90.00000   180.00000     0.13530
