 # applied field (T), theta (degree), phi (degree), abs for RE 1-2
     0.00000    90.00000   225.41977     4.25226    90.00000   225.41977     4.25226
     0.10000    90.00000   221.22026     4.25206    90.00000   221.22026     4.25206
     0.20000    90.00000   217.85610     4.25160    90.00000   217.85610     4.25160
     0.30000    90.00000   214.48414     4.25090    90.00000   214.48414     4.25090
     0.40000    90.00000   211.10117     4.25000    90.00000   211.10117     4.25000
     0.50000    90.00000   207.70456     4.24893    90.00000   207.70456     4.24893
     0.60000    90.00000   204.29238     4.24777    90.00000   204.29238     4.24777
     0.70000    90.00000   200.00385     4.24627    90.00000   200.00385     4.24627
     0.80000    90.00000   196.55416     4.24511    90.00000   196.55416     4.24511
     0.90000    90.00000   190.48120     4.24341    90.00000   190.48120     4.24341
     1.00000    90.00000   180.00000     4.24213    90.00000   180.00000     4.24213
     1.10000    90.00000   180.00000     4.24208    90.00000   180.00000     4.24208
     1.20000    90.00000   180.00000     4.24203    90.00000   180.00000     4.24203
     1.30000    90.00000   180.00000     4.24199    90.00000   180.00000     4.24199
     1.40000    90.00000   180.00000     4.24194    90.00000   180.00000     4.24194
     1.50000    90.00000   180.00000     4.24189    90.00000   180.00000     4.24189
     1.60000    90.00000   180.00000     4.24185    90.00000   180.00000     4.24185
     1.70000    90.00000   180.00000     4.24180    90.00000   180.00000     4.24180
     1.80000    90.00000   180.00000     4.24175    90.00000   180.00000     4.24175
     1.90000    90.00000   180.00000     4.24171    90.00000   180.00000     4.24171
     2.00000    90.00000   180.00000     4.24166    90.00000   180.00000     4.24166
     2.10000    90.00000   180.00000     4.24161    90.00000   180.00000     4.24161
     2.20000    90.00000   180.00000     4.24157    90.00000   180.00000     4.24157
     2.30000    90.00000   180.00000     4.24152    90.00000   180.00000     4.24152
     2.40000    90.00000   180.00000     4.24147    90.00000   180.00000     4.24147
     2.50000    90.00000   180.00000     4.24143    90.00000   180.00000     4.24143
     2.60000    90.00000   180.00000     4.24138    90.00000   180.00000     4.24138
     2.70000    90.00000   180.00000     4.24133    90.00000   180.00000     4.24133
     2.80000    90.00000   180.00000     4.24128    90.00000   180.00000     4.24128
     2.90000    90.00000   180.00000     4.24124    90.00000   180.00000     4.24124
     3.00000    90.00000   180.00000     4.24119    90.00000   180.00000     4.24119
     3.10000    90.00000   180.00000     4.24114    90.00000   180.00000     4.24114
     3.20000    90.00000   180.00000     4.24110    90.00000   180.00000     4.24110
     3.30000    90.00000   180.00000     4.24105    90.00000   180.00000     4.24105
     3.40000    90.00000   180.00000     4.24100    90.00000   180.00000     4.24100
     3.50000    90.00000   180.00000     4.24096    90.00000   180.00000     4.24096
     3.60000    90.00000   180.00000     4.24091    90.00000   180.00000     4.24091
     3.70000    90.00000   180.00000     4.24086    90.00000   180.00000     4.24086
     3.80000    90.00000   180.00000     4.24082    90.00000   180.00000     4.24082
     3.90000    90.00000   180.00000     4.24077    90.00000   180.00000     4.24077
     4.00000    90.00000   180.00000     4.24072    90.00000   180.00000     4.24072
     4.10000    90.00000   180.00000     4.24068    90.00000   180.00000     4.24068
     4.20000    90.00000   180.00000     4.24063    90.00000   180.00000     4.24063
     4.30000    90.00000   180.00000     4.24058    90.00000   180.00000     4.24058
     4.40000    90.00000   180.00000     4.24053    90.00000   180.00000     4.24053
     4.50000    90.00000   180.00000     4.24049    90.00000   180.00000     4.24049
     4.60000    90.00000   180.00000     4.24044    90.00000   180.00000     4.24044
     4.70000    90.00000   180.00000     4.24039    90.00000   180.00000     4.24039
     4.80000    90.00000   180.00000     4.24035    90.00000   180.00000     4.24035
     4.90000    90.00000   180.00000     4.24030    90.00000   180.00000     4.24030
     5.00000    90.00000   180.00000     4.24025    90.00000   180.00000     4.24025
     5.10000    90.00000   180.00000     4.24021    90.00000   180.00000     4.24021
     5.20000    90.00000   180.00000     4.24016    90.00000   180.00000     4.24016
     5.30000    90.00000   180.00000     4.24011    90.00000   180.00000     4.24011
     5.40000    90.00000   180.00000     4.24006    90.00000   180.00000     4.24006
     5.50000    90.00000   180.00000     4.24002    90.00000   180.00000     4.24002
     5.60000    90.00000   180.00000     4.23997    90.00000   180.00000     4.23997
     5.70000    90.00000   180.00000     4.23992    90.00000   180.00000     4.23992
     5.80000    90.00000   180.00000     4.23988    90.00000   180.00000     4.23988
     5.90000    90.00000   180.00000     4.23983    90.00000   180.00000     4.23983
     6.00000    90.00000   180.00000     4.23978    90.00000   180.00000     4.23978
     6.10000    90.00000   180.00000     4.23974    90.00000   180.00000     4.23974
     6.20000    90.00000   180.00000     4.23969    90.00000   180.00000     4.23969
     6.30000    90.00000   180.00000     4.23964    90.00000   180.00000     4.23964
     6.40000    90.00000   180.00000     4.23959    90.00000   180.00000     4.23959
     6.50000    90.00000   180.00000     4.23955    90.00000   180.00000     4.23955
     6.60000    90.00000   180.00000     4.23950    90.00000   180.00000     4.23950
     6.70000    90.00000   180.00000     4.23945    90.00000   180.00000     4.23945
     6.80000    90.00000   180.00000     4.23941    90.00000   180.00000     4.23941
     6.90000    90.00000   180.00000     4.23936    90.00000   180.00000     4.23936
     7.00000    90.00000   180.00000     4.23931    90.00000   180.00000     4.23931
     7.10000    90.00000   180.00000     4.23926    90.00000   180.00000     4.23926
     7.20000    90.00000   180.00000     4.23922    90.00000   180.00000     4.23922
     7.30000    90.00000   180.00000     4.23917    90.00000   180.00000     4.23917
     7.40000    90.00000   180.00000     4.23912    90.00000   180.00000     4.23912
     7.50000    90.00000   180.00000     4.23907    90.00000   180.00000     4.23907
     7.60000    90.00000   180.00000     4.23903    90.00000   180.00000     4.23903
     7.70000    90.00000   180.00000     4.23898    90.00000   180.00000     4.23898
     7.80000    90.00000   180.00000     4.23893    90.00000   180.00000     4.23893
     7.90000    90.00000   180.00000     4.23889    90.00000   180.00000     4.23889
     8.00000    90.00000   180.00000     4.23884    90.00000   180.00000     4.23884
     8.10000    90.00000   180.00000     4.23879    90.00000   180.00000     4.23879
     8.20000    90.00000   180.00000     4.23874    90.00000   180.00000     4.23874
     8.30000    90.00000   180.00000     4.23870    90.00000   180.00000     4.23870
     8.40000    90.00000   180.00000     4.23865    90.00000   180.00000     4.23865
     8.50000    90.00000   180.00000     4.23860    90.00000   180.00000     4.23860
     8.60000    90.00000   180.00000     4.23855    90.00000   180.00000     4.23855
     8.70000    90.00000   180.00000     4.23851    90.00000   180.00000     4.23851
     8.80000    90.00000   180.00000     4.23846    90.00000   180.00000     4.23846
     8.90000    90.00000   180.00000     4.23841    90.00000   180.00000     4.23841
     9.00000    90.00000   180.00000     4.23837    90.00000   180.00000     4.23837
     9.10000    90.00000   180.00000     4.23832    90.00000   180.00000     4.23832
     9.20000    90.00000   180.00000     4.23827    90.00000   180.00000     4.23827
     9.30000    90.00000   180.00000     4.23822    90.00000   180.00000     4.23822
     9.40000    90.00000   180.00000     4.23818    90.00000   180.00000     4.23818
     9.50000    90.00000   180.00000     4.23813    90.00000   180.00000     4.23813
     9.60000    90.00000   180.00000     4.23808    90.00000   180.00000     4.23808
     9.70000    90.00000   180.00000     4.23803    90.00000   180.00000     4.23803
     9.80000    90.00000   180.00000     4.23799    90.00000   180.00000     4.23799
     9.90000    90.00000   180.00000     4.23794    90.00000   180.00000     4.23794
    10.00000    90.00000   180.00000     4.23789    90.00000   180.00000     4.23789
    10.10000    90.00000   180.00000     4.23784    90.00000   180.00000     4.23784
    10.20000    90.00000   180.00000     4.23780    90.00000   180.00000     4.23780
    10.30000    90.00000   180.00000     4.23775    90.00000   180.00000     4.23775
    10.40000    90.00000   180.00000     4.23770    90.00000   180.00000     4.23770
    10.50000    90.00000   180.00000     4.23765    90.00000   180.00000     4.23765
    10.60000    90.00000   180.00000     4.23761    90.00000   180.00000     4.23761
    10.70000    90.00000   180.00000     4.23756    90.00000   180.00000     4.23756
    10.80000    90.00000   180.00000     4.23751    90.00000   180.00000     4.23751
    10.90000    90.00000   180.00000     4.23746    90.00000   180.00000     4.23746
    11.00000    90.00000   180.00000     4.23742    90.00000   180.00000     4.23742
    11.10000    90.00000   180.00000     4.23737    90.00000   180.00000     4.23737
    11.20000    90.00000   180.00000     4.23732    90.00000   180.00000     4.23732
    11.30000    90.00000   180.00000     4.23727    90.00000   180.00000     4.23727
    11.40000    90.00000   180.00000     4.23723    90.00000   180.00000     4.23723
    11.50000    90.00000   180.00000     4.23718    90.00000   180.00000     4.23718
    11.60000    90.00000   180.00000     4.23713    90.00000   180.00000     4.23713
    11.70000    90.00000   180.00000     4.23708    90.00000   180.00000     4.23708
    11.80000    90.00000   180.00000     4.23704    90.00000   180.00000     4.23704
    11.90000    90.00000   180.00000     4.23699    90.00000   180.00000     4.23699
    12.00000    90.00000   180.00000     4.23694    90.00000   180.00000     4.23694
    12.10000    90.00000   180.00000     4.23689    90.00000   180.00000     4.23689
    12.20000    90.00000   180.00000     4.23684    90.00000   180.00000     4.23684
    12.30000    90.00000   180.00000     4.23680    90.00000   180.00000     4.23680
    12.40000    90.00000   180.00000     4.23675    90.00000   180.00000     4.23675
    12.50000    90.00000   180.00000     4.23670    90.00000   180.00000     4.23670
    12.60000    90.00000   180.00000     4.23665    90.00000   180.00000     4.23665
    12.70000    90.00000   180.00000     4.23661    90.00000   180.00000     4.23661
    12.80000    90.00000   180.00000     4.23656    90.00000   180.00000     4.23656
    12.90000    90.00000   180.00000     4.23651    90.00000   180.00000     4.23651
    13.00000    90.00000   180.00000     4.23646    90.00000   180.00000     4.23646
    13.10000    90.00000   180.00000     4.23641    90.00000   180.00000     4.23641
    13.20000    90.00000   180.00000     4.23637    90.00000   180.00000     4.23637
    13.30000    90.00000   180.00000     4.23632    90.00000   180.00000     4.23632
    13.40000    90.00000   180.00000     4.23627    90.00000   180.00000     4.23627
    13.50000    90.00000   180.00000     4.23622    90.00000   180.00000     4.23622
    13.60000    90.00000   180.00000     4.23618    90.00000   180.00000     4.23618
    13.70000    90.00000   180.00000     4.23613    90.00000   180.00000     4.23613
    13.80000    90.00000   180.00000     4.23608    90.00000   180.00000     4.23608
    13.90000    90.00000   180.00000     4.23603    90.00000   180.00000     4.23603
    14.00000    90.00000   180.00000     4.23598    90.00000   180.00000     4.23598
    14.10000    90.00000   180.00000     4.23594    90.00000   180.00000     4.23594
    14.20000    90.00000   180.00000     4.23589    90.00000   180.00000     4.23589
    14.30000    90.00000   180.00000     4.23584    90.00000   180.00000     4.23584
    14.40000    90.00000   180.00000     4.23579    90.00000   180.00000     4.23579
    14.50000    90.00000   180.00000     4.23575    90.00000   180.00000     4.23575
    14.60000    90.00000   180.00000     4.23570    90.00000   180.00000     4.23570
    14.70000    90.00000   180.00000     4.23565    90.00000   180.00000     4.23565
    14.80000    90.00000   180.00000     4.23560    90.00000   180.00000     4.23560
    14.90000    90.00000   180.00000     4.23555    90.00000   180.00000     4.23555
    15.00000    90.00000   180.00000     4.23551    90.00000   180.00000     4.23551
    15.10000    90.00000   180.00000     4.23546    90.00000   180.00000     4.23546
    15.20000    90.00000   180.00000     4.23541    90.00000   180.00000     4.23541
    15.30000    90.00000   180.00000     4.23536    90.00000   180.00000     4.23536
    15.40000    90.00000   180.00000     4.23531    90.00000   180.00000     4.23531
    15.50000    90.00000   180.00000     4.23527    90.00000   180.00000     4.23527
    15.60000    90.00000   180.00000     4.23522    90.00000   180.00000     4.23522
    15.70000    90.00000   180.00000     4.23517    90.00000   180.00000     4.23517
    15.80000    90.00000   180.00000     4.23512    90.00000   180.00000     4.23512
    15.90000    90.00000   180.00000     4.23507    90.00000   180.00000     4.23507
    16.00000    90.00000   180.00000     4.23503    90.00000   180.00000     4.23503
    16.10000    90.00000   180.00000     4.23498    90.00000   180.00000     4.23498
    16.20000    90.00000   180.00000     4.23493    90.00000   180.00000     4.23493
    16.30000    90.00000   180.00000     4.23488    90.00000   180.00000     4.23488
    16.40000    90.00000   180.00000     4.23483    90.00000   180.00000     4.23483
    16.50000    90.00000   180.00000     4.23479    90.00000   180.00000     4.23479
    16.60000    90.00000   180.00000     4.23474    90.00000   180.00000     4.23474
    16.70000    90.00000   180.00000     4.23469    90.00000   180.00000     4.23469
    16.80000    90.00000   180.00000     4.23464    90.00000   180.00000     4.23464
    16.90000    90.00000   180.00000     4.23459    90.00000   180.00000     4.23459
    17.00000    90.00000   180.00000     4.23454    90.00000   180.00000     4.23454
    17.10000    90.00000   180.00000     4.23450    90.00000   180.00000     4.23450
    17.20000    90.00000   180.00000     4.23445    90.00000   180.00000     4.23445
    17.30000    90.00000   180.00000     4.23440    90.00000   180.00000     4.23440
    17.40000    90.00000   180.00000     4.23435    90.00000   180.00000     4.23435
    17.50000    90.00000   180.00000     4.23430    90.00000   180.00000     4.23430
    17.60000    90.00000   180.00000     4.23426    90.00000   180.00000     4.23426
    17.70000    90.00000   180.00000     4.23421    90.00000   180.00000     4.23421
    17.80000    90.00000   180.00000     4.23416    90.00000   180.00000     4.23416
    17.90000    90.00000   180.00000     4.23411    90.00000   180.00000     4.23411
    18.00000    90.00000   180.00000     4.23406    90.00000   180.00000     4.23406
    18.10000    90.00000   180.00000     4.23401    90.00000   180.00000     4.23401
    18.20000    90.00000   180.00000     4.23397    90.00000   180.00000     4.23397
    18.30000    90.00000   180.00000     4.23392    90.00000   180.00000     4.23392
    18.40000    90.00000   180.00000     4.23387    90.00000   180.00000     4.23387
    18.50000    90.00000   180.00000     4.23382    90.00000   180.00000     4.23382
    18.60000    90.00000   180.00000     4.23377    90.00000   180.00000     4.23377
    18.70000    90.00000   180.00000     4.23373    90.00000   180.00000     4.23373
    18.80000    90.00000   180.00000     4.23368    90.00000   180.00000     4.23368
    18.90000    90.00000   180.00000     4.23363    90.00000   180.00000     4.23363
    19.00000    90.00000   180.00000     4.23358    90.00000   180.00000     4.23358
    19.10000    90.00000   180.00000     4.23353    90.00000   180.00000     4.23353
    19.20000    90.00000   180.00000     4.23348    90.00000   180.00000     4.23348
    19.30000    90.00000   180.00000     4.23344    90.00000   180.00000     4.23344
    19.40000    90.00000   180.00000     4.23339    90.00000   180.00000     4.23339
    19.50000    90.00000   180.00000     4.23334    90.00000   180.00000     4.23334
    19.60000    90.00000   180.00000     4.23329    90.00000   180.00000     4.23329
    19.70000    90.00000   180.00000     4.23324    90.00000   180.00000     4.23324
    19.80000    90.00000   180.00000     4.23319    90.00000   180.00000     4.23319
    19.90000    90.00000   180.00000     4.23314    90.00000   180.00000     4.23314
    20.00000    90.00000   180.00000     4.23310    90.00000   180.00000     4.23310
    20.10000    90.00000   180.00000     4.23305    90.00000   180.00000     4.23305
    20.20000    90.00000   180.00000     4.23300    90.00000   180.00000     4.23300
    20.30000    90.00000   180.00000     4.23295    90.00000   180.00000     4.23295
    20.40000    90.00000   180.00000     4.23290    90.00000   180.00000     4.23290
    20.50000    90.00000   180.00000     4.23285    90.00000   180.00000     4.23285
    20.60000    90.00000   180.00000     4.23281    90.00000   180.00000     4.23281
    20.70000    90.00000   180.00000     4.23276    90.00000   180.00000     4.23276
    20.80000    90.00000   180.00000     4.23271    90.00000   180.00000     4.23271
    20.90000    90.00000   180.00000     4.23266    90.00000   180.00000     4.23266
    21.00000    90.00000   180.00000     4.23261    90.00000   180.00000     4.23261
    21.10000    90.00000   180.00000     4.23256    90.00000   180.00000     4.23256
    21.20000    90.00000   180.00000     4.23251    90.00000   180.00000     4.23251
    21.30000    90.00000   180.00000     4.23247    90.00000   180.00000     4.23247
    21.40000    90.00000   180.00000     4.23242    90.00000   180.00000     4.23242
    21.50000    90.00000   180.00000     4.23237    90.00000   180.00000     4.23237
    21.60000    90.00000   180.00000     4.23232    90.00000   180.00000     4.23232
    21.70000    90.00000   180.00000     4.23227    90.00000   180.00000     4.23227
    21.80000    90.00000   180.00000     4.23222    90.00000   180.00000     4.23222
    21.90000    90.00000   180.00000     4.23217    90.00000   180.00000     4.23217
    22.00000    90.00000   180.00000     4.23213    90.00000   180.00000     4.23213
    22.10000    90.00000   180.00000     4.23208    90.00000   180.00000     4.23208
    22.20000    90.00000   180.00000     4.23203    90.00000   180.00000     4.23203
    22.30000    90.00000   180.00000     4.23198    90.00000   180.00000     4.23198
    22.40000    90.00000   180.00000     4.23193    90.00000   180.00000     4.23193
    22.50000    90.00000   180.00000     4.23188    90.00000   180.00000     4.23188
    22.60000    90.00000   180.00000     4.23183    90.00000   180.00000     4.23183
    22.70000    90.00000   180.00000     4.23179    90.00000   180.00000     4.23179
    22.80000    90.00000   180.00000     4.23174    90.00000   180.00000     4.23174
    22.90000    90.00000   180.00000     4.23169    90.00000   180.00000     4.23169
    23.00000    90.00000   180.00000     4.23164    90.00000   180.00000     4.23164
    23.10000    90.00000   180.00000     4.23159    90.00000   180.00000     4.23159
    23.20000    90.00000   180.00000     4.23154    90.00000   180.00000     4.23154
    23.30000    90.00000   180.00000     4.23149    90.00000   180.00000     4.23149
    23.40000    90.00000   180.00000     4.23144    90.00000   180.00000     4.23144
    23.50000    90.00000   180.00000     4.23140    90.00000   180.00000     4.23140
    23.60000    90.00000   180.00000     4.23135    90.00000   180.00000     4.23135
    23.70000    90.00000   180.00000     4.23130    90.00000   180.00000     4.23130
    23.80000    90.00000   180.00000     4.23125    90.00000   180.00000     4.23125
    23.90000    90.00000   180.00000     4.23120    90.00000   180.00000     4.23120
    24.00000    90.00000   180.00000     4.23115    90.00000   180.00000     4.23115
    24.10000    90.00000   180.00000     4.23110    90.00000   180.00000     4.23110
    24.20000    90.00000   180.00000     4.23105    90.00000   180.00000     4.23105
    24.30000    90.00000   180.00000     4.23101    90.00000   180.00000     4.23101
    24.40000    90.00000   180.00000     4.23096    90.00000   180.00000     4.23096
    24.50000    90.00000   180.00000     4.23091    90.00000   180.00000     4.23091
    24.60000    90.00000   180.00000     4.23086    90.00000   180.00000     4.23086
    24.70000    90.00000   180.00000     4.23081    90.00000   180.00000     4.23081
    24.80000    90.00000   180.00000     4.23076    90.00000   180.00000     4.23076
    24.90000    90.00000   180.00000     4.23071    90.00000   180.00000     4.23071
    25.00000    90.00000   180.00000     4.23066    90.00000   180.00000     4.23066
    25.10000    90.00000   180.00000     4.23061    90.00000   180.00000     4.23061
    25.20000    90.00000   180.00000     4.23057    90.00000   180.00000     4.23057
    25.30000    90.00000   180.00000     4.23052    90.00000   180.00000     4.23052
    25.40000    90.00000   180.00000     4.23047    90.00000   180.00000     4.23047
    25.50000    90.00000   180.00000     4.23042    90.00000   180.00000     4.23042
    25.60000    90.00000   180.00000     4.23037    90.00000   180.00000     4.23037
    25.70000    90.00000   180.00000     4.23032    90.00000   180.00000     4.23032
    25.80000    90.00000   180.00000     4.23027    90.00000   180.00000     4.23027
    25.90000    90.00000   180.00000     4.23022    90.00000   180.00000     4.23022
    26.00000    90.00000   180.00000     4.23017    90.00000   180.00000     4.23017
    26.10000    90.00000   180.00000     4.23013    90.00000   180.00000     4.23013
    26.20000    90.00000   180.00000     4.23008    90.00000   180.00000     4.23008
    26.30000    90.00000   180.00000     4.23003    90.00000   180.00000     4.23003
    26.40000    90.00000   180.00000     4.22998    90.00000   180.00000     4.22998
    26.50000    90.00000   180.00000     4.22993    90.00000   180.00000     4.22993
    26.60000    90.00000   180.00000     4.22988    90.00000   180.00000     4.22988
    26.70000    90.00000   180.00000     4.22983    90.00000   180.00000     4.22983
    26.80000    90.00000   180.00000     4.22978    90.00000   180.00000     4.22978
    26.90000    90.00000   180.00000     4.22973    90.00000   180.00000     4.22973
    27.00000    90.00000   180.00000     4.22968    90.00000   180.00000     4.22968
    27.10000    90.00000   180.00000     4.22963    90.00000   180.00000     4.22963
    27.20000    90.00000   180.00000     4.22959    90.00000   180.00000     4.22959
    27.30000    90.00000   180.00000     4.22954    90.00000   180.00000     4.22954
    27.40000    90.00000   180.00000     4.22949    90.00000   180.00000     4.22949
    27.50000    90.00000   180.00000     4.22944    90.00000   180.00000     4.22944
    27.60000    90.00000   180.00000     4.22939    90.00000   180.00000     4.22939
    27.70000    90.00000   180.00000     4.22934    90.00000   180.00000     4.22934
    27.80000    90.00000   180.00000     4.22929    90.00000   180.00000     4.22929
    27.90000    90.00000   180.00000     4.22924    90.00000   180.00000     4.22924
    28.00000    90.00000   180.00000     4.22919    90.00000   180.00000     4.22919
    28.10000    90.00000   180.00000     4.22914    90.00000   180.00000     4.22914
    28.20000    90.00000   180.00000     4.22909    90.00000   180.00000     4.22909
    28.30000    90.00000   180.00000     4.22904    90.00000   180.00000     4.22904
    28.40000    90.00000   180.00000     4.22900    90.00000   180.00000     4.22900
    28.50000    90.00000   180.00000     4.22895    90.00000   180.00000     4.22895
    28.60000    90.00000   180.00000     4.22890    90.00000   180.00000     4.22890
    28.70000    90.00000   180.00000     4.22885    90.00000   180.00000     4.22885
    28.80000    90.00000   180.00000     4.22880    90.00000   180.00000     4.22880
    28.90000    90.00000   180.00000     4.22875    90.00000   180.00000     4.22875
    29.00000    90.00000   180.00000     4.22870    90.00000   180.00000     4.22870
    29.10000    90.00000   180.00000     4.22865    90.00000   180.00000     4.22865
    29.20000    90.00000   180.00000     4.22860    90.00000   180.00000     4.22860
    29.30000    90.00000   180.00000     4.22855    90.00000   180.00000     4.22855
    29.40000    90.00000   180.00000     4.22850    90.00000   180.00000     4.22850
    29.50000    90.00000   180.00000     4.22845    90.00000   180.00000     4.22845
    29.60000    90.00000   180.00000     4.22840    90.00000   180.00000     4.22840
    29.70000    90.00000   180.00000     4.22835    90.00000   180.00000     4.22835
    29.80000    90.00000   180.00000     4.22831    90.00000   180.00000     4.22831
    29.90000    90.00000   180.00000     4.22826    90.00000   180.00000     4.22826
    30.00000    90.00000   180.00000     4.22821    90.00000   180.00000     4.22821
    30.10000    90.00000   180.00000     4.22816    90.00000   180.00000     4.22816
    30.20000    90.00000   180.00000     4.22811    90.00000   180.00000     4.22811
    30.30000    90.00000   180.00000     4.22806    90.00000   180.00000     4.22806
    30.40000    90.00000   180.00000     4.22801    90.00000   180.00000     4.22801
    30.50000    90.00000   180.00000     4.22796    90.00000   180.00000     4.22796
    30.60000    90.00000   180.00000     4.22791    90.00000   180.00000     4.22791
    30.70000    90.00000   180.00000     4.22786    90.00000   180.00000     4.22786
    30.80000    90.00000   180.00000     4.22781    90.00000   180.00000     4.22781
    30.90000    90.00000   180.00000     4.22776    90.00000   180.00000     4.22776
    31.00000    90.00000   180.00000     4.22771    90.00000   180.00000     4.22771
    31.10000    90.00000   180.00000     4.22766    90.00000   180.00000     4.22766
    31.20000    90.00000   180.00000     4.22761    90.00000   180.00000     4.22761
    31.30000    90.00000   180.00000     4.22756    90.00000   180.00000     4.22756
    31.40000    90.00000   180.00000     4.22751    90.00000   180.00000     4.22751
    31.50000    90.00000   180.00000     4.22747    90.00000   180.00000     4.22747
    31.60000    90.00000   180.00000     4.22742    90.00000   180.00000     4.22742
    31.70000    90.00000   180.00000     4.22737    90.00000   180.00000     4.22737
    31.80000    90.00000   180.00000     4.22732    90.00000   180.00000     4.22732
    31.90000    90.00000   180.00000     4.22727    90.00000   180.00000     4.22727
    32.00000    90.00000   180.00000     4.22722    90.00000   180.00000     4.22722
    32.10000    90.00000   180.00000     4.22717    90.00000   180.00000     4.22717
    32.20000    90.00000   180.00000     4.22712    90.00000   180.00000     4.22712
    32.30000    90.00000   180.00000     4.22707    90.00000   180.00000     4.22707
    32.40000    90.00000   180.00000     4.22702    90.00000   180.00000     4.22702
    32.50000    90.00000   180.00000     4.22697    90.00000   180.00000     4.22697
    32.60000    90.00000   180.00000     4.22692    90.00000   180.00000     4.22692
    32.70000    90.00000   180.00000     4.22687    90.00000   180.00000     4.22687
    32.80000    90.00000   180.00000     4.22682    90.00000   180.00000     4.22682
    32.90000    90.00000   180.00000     4.22677    90.00000   180.00000     4.22677
    33.00000    90.00000   180.00000     4.22672    90.00000   180.00000     4.22672
    33.10000    90.00000   180.00000     4.22667    90.00000   180.00000     4.22667
    33.20000    90.00000   180.00000     4.22662    90.00000   180.00000     4.22662
    33.30000    90.00000   180.00000     4.22657    90.00000   180.00000     4.22657
    33.40000    90.00000   180.00000     4.22652    90.00000   180.00000     4.22652
    33.50000    90.00000   180.00000     4.22647    90.00000   180.00000     4.22647
    33.60000    90.00000   180.00000     4.22642    90.00000   180.00000     4.22642
    33.70000    90.00000   180.00000     4.22637    90.00000   180.00000     4.22637
    33.80000    90.00000   180.00000     4.22632    90.00000   180.00000     4.22632
    33.90000    90.00000   180.00000     4.22627    90.00000   180.00000     4.22627
    34.00000    90.00000   180.00000     4.22622    90.00000   180.00000     4.22622
    34.10000    90.00000   180.00000     4.22617    90.00000   180.00000     4.22617
    34.20000    90.00000   180.00000     4.22612    90.00000   180.00000     4.22612
    34.30000    90.00000   180.00000     4.22608    90.00000   180.00000     4.22608
    34.40000    90.00000   180.00000     4.22603    90.00000   180.00000     4.22603
    34.50000    90.00000   180.00000     4.22598    90.00000   180.00000     4.22598
    34.60000    90.00000   180.00000     4.22593    90.00000   180.00000     4.22593
    34.70000    90.00000   180.00000     4.22588    90.00000   180.00000     4.22588
    34.80000    90.00000   180.00000     4.22583    90.00000   180.00000     4.22583
    34.90000    90.00000   180.00000     4.22578    90.00000   180.00000     4.22578
    35.00000    90.00000   180.00000     4.22573    90.00000   180.00000     4.22573
    35.10000    90.00000   180.00000     4.22568    90.00000   180.00000     4.22568
    35.20000    90.00000   180.00000     4.22563    90.00000   180.00000     4.22563
    35.30000    90.00000   180.00000     4.22558    90.00000   180.00000     4.22558
    35.40000    90.00000   180.00000     4.22553    90.00000   180.00000     4.22553
    35.50000    90.00000   180.00000     4.22548    90.00000   180.00000     4.22548
    35.60000    90.00000   180.00000     4.22543    90.00000   180.00000     4.22543
    35.70000    90.00000   180.00000     4.22538    90.00000   180.00000     4.22538
    35.80000    90.00000   180.00000     4.22533    90.00000   180.00000     4.22533
    35.90000    90.00000   180.00000     4.22528    90.00000   180.00000     4.22528
    36.00000    90.00000   180.00000     4.22523    90.00000   180.00000     4.22523
    36.10000    90.00000   180.00000     4.22518    90.00000   180.00000     4.22518
    36.20000    90.00000   180.00000     4.22513    90.00000   180.00000     4.22513
    36.30000    90.00000   180.00000     4.22508    90.00000   180.00000     4.22508
    36.40000    90.00000   180.00000     4.22503    90.00000   180.00000     4.22503
    36.50000    90.00000   180.00000     4.22498    90.00000   180.00000     4.22498
    36.60000    90.00000   180.00000     4.22493    90.00000   180.00000     4.22493
    36.70000    90.00000   180.00000     4.22488    90.00000   180.00000     4.22488
    36.80000    90.00000   180.00000     4.22483    90.00000   180.00000     4.22483
    36.90000    90.00000   180.00000     4.22478    90.00000   180.00000     4.22478
    37.00000    90.00000   180.00000     4.22473    90.00000   180.00000     4.22473
    37.10000    90.00000   180.00000     4.22468    90.00000   180.00000     4.22468
    37.20000    90.00000   180.00000     4.22463    90.00000   180.00000     4.22463
    37.30000    90.00000   180.00000     4.22458    90.00000   180.00000     4.22458
    37.40000    90.00000   180.00000     4.22453    90.00000   180.00000     4.22453
    37.50000    90.00000   180.00000     4.22448    90.00000   180.00000     4.22448
    37.60000    90.00000   180.00000     4.22443    90.00000   180.00000     4.22443
    37.70000    90.00000   180.00000     4.22438    90.00000   180.00000     4.22438
    37.80000    90.00000   180.00000     4.22433    90.00000   180.00000     4.22433
    37.90000    90.00000   180.00000     4.22428    90.00000   180.00000     4.22428
    38.00000    90.00000   180.00000     4.22423    90.00000   180.00000     4.22423
    38.10000    90.00000   180.00000     4.22418    90.00000   180.00000     4.22418
    38.20000    90.00000   180.00000     4.22413    90.00000   180.00000     4.22413
    38.30000    90.00000   180.00000     4.22408    90.00000   180.00000     4.22408
    38.40000    90.00000   180.00000     4.22403    90.00000   180.00000     4.22403
    38.50000    90.00000   180.00000     4.22398    90.00000   180.00000     4.22398
    38.60000    90.00000   180.00000     4.22393    90.00000   180.00000     4.22393
    38.70000    90.00000   180.00000     4.22388    90.00000   180.00000     4.22388
    38.80000    90.00000   180.00000     4.22383    90.00000   180.00000     4.22383
    38.90000    90.00000   180.00000     4.22378    90.00000   180.00000     4.22378
    39.00000    90.00000   180.00000     4.22372    90.00000   180.00000     4.22372
    39.10000    90.00000   180.00000     4.22367    90.00000   180.00000     4.22367
    39.20000    90.00000   180.00000     4.22362    90.00000   180.00000     4.22362
    39.30000    90.00000   180.00000     4.22357    90.00000   180.00000     4.22357
    39.40000    90.00000   180.00000     4.22352    90.00000   180.00000     4.22352
    39.50000    90.00000   180.00000     4.22347    90.00000   180.00000     4.22347
    39.60000    90.00000   180.00000     4.22342    90.00000   180.00000     4.22342
    39.70000    90.00000   180.00000     4.22337    90.00000   180.00000     4.22337
    39.80000    90.00000   180.00000     4.22332    90.00000   180.00000     4.22332
    39.90000    90.00000   180.00000     4.22327    90.00000   180.00000     4.22327
    40.00000    90.00000   180.00000     4.22322    90.00000   180.00000     4.22322
