 # applied field (T), theta (degree), phi (degree), abs
     0.00000     0.00000     0.00000    41.64459
     0.10000     0.40127    45.00000    41.64459
     0.20000     0.80255    45.00000    41.64459
     0.30000     1.20382    45.00000    41.64459
     0.40000     1.60510    45.00000    41.64459
     0.50000     2.00637    45.00000    41.64459
     0.60000     2.40764    45.00000    41.64459
     0.70000     2.86624    45.00000    41.64459
     0.80000     3.26752    45.00000    41.64459
     0.90000     3.66879    45.00000    41.64459
     1.00000     4.07006    45.00000    41.64459
     1.10000     4.47134    45.00000    41.64459
     1.20000     4.92994    45.00000    41.64459
     1.30000     5.33121    45.00000    41.64459
     1.40000    90.00000    80.48077    41.64459
     1.50000    90.00000    10.38462    41.64459
     1.60000    90.00000    10.38462    41.64459
     1.70000    90.00000    11.25000    41.64459
     1.80000    90.00000    77.88462    41.64459
     1.90000    90.00000    12.11538    41.64459
     2.00000    90.00000    77.01923    41.64459
     2.10000    90.00000    13.84615    41.64459
     2.20000    90.00000    13.84615    41.64459
     2.30000    90.00000    14.71154    41.64459
     2.40000    90.00000    74.42308    41.64459
     2.50000    90.00000    74.42308    41.64459
     2.60000    90.00000    16.44231    41.64459
     2.70000    90.00000    72.69231    41.64459
     2.80000    90.00000    18.17308    41.64459
     2.90000    90.00000    18.17308    41.64459
     3.00000    90.00000    70.96154    41.64459
     3.10000    90.00000    19.90385    41.64459
     3.20000    90.00000    70.09615    41.64459
     3.30000    90.00000    20.76923    41.64459
     3.40000    90.00000    68.36538    41.64459
     3.50000    90.00000    21.63462    41.64459
     3.60000    90.00000    22.50000    41.64459
     3.70000    90.00000    23.36538    41.64459
     3.80000    90.00000    24.23077    41.64459
     3.90000    90.00000    65.76923    41.64459
     4.00000    90.00000    25.09615    41.64459
     4.10000    90.00000    25.96154    41.64459
     4.20000    90.00000    26.82692    41.64459
     4.30000    90.00000    63.17308    41.64459
     4.40000    90.00000    27.69231    41.64459
     4.50000    90.00000    28.55769    41.64459
     4.60000    90.00000    29.42308    41.64459
     4.70000    90.00000    59.71154    41.64459
     4.80000    90.00000    58.84615    41.64459
     4.90000    90.00000    32.01923    41.64459
     5.00000    90.00000    57.11538    41.64459
     5.10000    90.00000    56.25000    41.64459
     5.20000    90.00000    34.61538    41.64459
     5.30000    90.00000    35.48077    41.64459
     5.40000    90.00000    52.78846    41.64459
     5.50000    90.00000    38.07692    41.64459
     5.60000    90.00000    49.32692    41.64459
     5.70000    90.00000    43.26923    41.64459
     5.80000    90.00000    45.00000    41.64459
     5.90000    90.00000    45.00000    41.64459
     6.00000    90.00000    45.00000    41.64459
     6.10000    90.00000    45.00000    41.64459
     6.20000    90.00000    45.00000    41.64459
     6.30000    90.00000    45.00000    41.64459
     6.40000    90.00000    45.00000    41.64459
     6.50000    90.00000    45.00000    41.64459
     6.60000    90.00000    45.00000    41.64459
     6.70000    90.00000    45.00000    41.64459
     6.80000    90.00000    45.00000    41.64459
     6.90000    90.00000    45.00000    41.64459
     7.00000    90.00000    45.00000    41.64459
     7.10000    90.00000    45.00000    41.64459
     7.20000    90.00000    45.00000    41.64459
     7.30000    90.00000    45.00000    41.64459
     7.40000    90.00000    45.00000    41.64459
     7.50000    90.00000    45.00000    41.64459
     7.60000    90.00000    45.00000    41.64459
     7.70000    90.00000    45.00000    41.64459
     7.80000    90.00000    45.00000    41.64459
     7.90000    90.00000    45.00000    41.64459
     8.00000    90.00000    45.00000    41.64459
     8.10000    90.00000    45.00000    41.64459
     8.20000    90.00000    45.00000    41.64459
     8.30000    90.00000    45.00000    41.64459
     8.40000    90.00000    45.00000    41.64459
     8.50000    90.00000    45.00000    41.64459
     8.60000    90.00000    45.00000    41.64459
     8.70000    90.00000    45.00000    41.64459
     8.80000    90.00000    45.00000    41.64459
     8.90000    90.00000    45.00000    41.64459
     9.00000    90.00000    45.00000    41.64459
     9.10000    90.00000    45.00000    41.64459
     9.20000    90.00000    45.00000    41.64459
     9.30000    90.00000    45.00000    41.64459
     9.40000    90.00000    45.00000    41.64459
     9.50000    90.00000    45.00000    41.64459
     9.60000    90.00000    45.00000    41.64459
     9.70000    90.00000    45.00000    41.64459
     9.80000    90.00000    45.00000    41.64459
     9.90000    90.00000    45.00000    41.64459
    10.00000    90.00000    45.00000    41.64459
    10.10000    90.00000    45.00000    41.64459
    10.20000    90.00000    45.00000    41.64459
    10.30000    90.00000    45.00000    41.64459
    10.40000    90.00000    45.00000    41.64459
    10.50000    90.00000    45.00000    41.64459
    10.60000    90.00000    45.00000    41.64459
    10.70000    90.00000    45.00000    41.64459
    10.80000    90.00000    45.00000    41.64459
    10.90000    90.00000    45.00000    41.64459
    11.00000    90.00000    45.00000    41.64459
    11.10000    90.00000    45.00000    41.64459
    11.20000    90.00000    45.00000    41.64459
    11.30000    90.00000    45.00000    41.64459
    11.40000    90.00000    45.00000    41.64459
    11.50000    90.00000    45.00000    41.64459
    11.60000    90.00000    45.00000    41.64459
    11.70000    90.00000    45.00000    41.64459
    11.80000    90.00000    45.00000    41.64459
    11.90000    90.00000    45.00000    41.64459
    12.00000    90.00000    45.00000    41.64459
    12.10000    90.00000    45.00000    41.64459
    12.20000    90.00000    45.00000    41.64459
    12.30000    90.00000    45.00000    41.64459
    12.40000    90.00000    45.00000    41.64459
    12.50000    90.00000    45.00000    41.64459
    12.60000    90.00000    45.00000    41.64459
    12.70000    90.00000    45.00000    41.64459
    12.80000    90.00000    45.00000    41.64459
    12.90000    90.00000    45.00000    41.64459
    13.00000    90.00000    45.00000    41.64459
    13.10000    90.00000    45.00000    41.64459
    13.20000    90.00000    45.00000    41.64459
    13.30000    90.00000    45.00000    41.64459
    13.40000    90.00000    45.00000    41.64459
    13.50000    90.00000    45.00000    41.64459
    13.60000    90.00000    45.00000    41.64459
    13.70000    90.00000    45.00000    41.64459
    13.80000    90.00000    45.00000    41.64459
    13.90000    90.00000    45.00000    41.64459
    14.00000    90.00000    45.00000    41.64459
    14.10000    90.00000    45.00000    41.64459
    14.20000    90.00000    45.00000    41.64459
    14.30000    90.00000    45.00000    41.64459
    14.40000    90.00000    45.00000    41.64459
    14.50000    90.00000    45.00000    41.64459
    14.60000    90.00000    45.00000    41.64459
    14.70000    90.00000    45.00000    41.64459
    14.80000    90.00000    45.00000    41.64459
    14.90000    90.00000    45.00000    41.64459
    15.00000    90.00000    45.00000    41.64459
    15.10000    90.00000    45.00000    41.64459
    15.20000    90.00000    45.00000    41.64459
    15.30000    90.00000    45.00000    41.64459
    15.40000    90.00000    45.00000    41.64459
    15.50000    90.00000    45.00000    41.64459
    15.60000    90.00000    45.00000    41.64459
    15.70000    90.00000    45.00000    41.64459
    15.80000    90.00000    45.00000    41.64459
    15.90000    90.00000    45.00000    41.64459
    16.00000    90.00000    45.00000    41.64459
    16.10000    90.00000    45.00000    41.64459
    16.20000    90.00000    45.00000    41.64459
    16.30000    90.00000    45.00000    41.64459
    16.40000    90.00000    45.00000    41.64459
    16.50000    90.00000    45.00000    41.64459
    16.60000    90.00000    45.00000    41.64459
    16.70000    90.00000    45.00000    41.64459
    16.80000    90.00000    45.00000    41.64459
    16.90000    90.00000    45.00000    41.64459
    17.00000    90.00000    45.00000    41.64459
    17.10000    90.00000    45.00000    41.64459
    17.20000    90.00000    45.00000    41.64459
    17.30000    90.00000    45.00000    41.64459
    17.40000    90.00000    45.00000    41.64459
    17.50000    90.00000    45.00000    41.64459
    17.60000    90.00000    45.00000    41.64459
    17.70000    90.00000    45.00000    41.64459
    17.80000    90.00000    45.00000    41.64459
    17.90000    90.00000    45.00000    41.64459
    18.00000    90.00000    45.00000    41.64459
    18.10000    90.00000    45.00000    41.64459
    18.20000    90.00000    45.00000    41.64459
    18.30000    90.00000    45.00000    41.64459
    18.40000    90.00000    45.00000    41.64459
    18.50000    90.00000    45.00000    41.64459
    18.60000    90.00000    45.00000    41.64459
    18.70000    90.00000    45.00000    41.64459
    18.80000    90.00000    45.00000    41.64459
    18.90000    90.00000    45.00000    41.64459
    19.00000    90.00000    45.00000    41.64459
    19.10000    90.00000    45.00000    41.64459
    19.20000    90.00000    45.00000    41.64459
    19.30000    90.00000    45.00000    41.64459
    19.40000    90.00000    45.00000    41.64459
    19.50000    90.00000    45.00000    41.64459
    19.60000    90.00000    45.00000    41.64459
    19.70000    90.00000    45.00000    41.64459
    19.80000    90.00000    45.00000    41.64459
    19.90000    90.00000    45.00000    41.64459
    20.00000    90.00000    45.00000    41.64459
    20.10000    90.00000    45.00000    41.64459
    20.20000    90.00000    45.00000    41.64459
    20.30000    90.00000    45.00000    41.64459
    20.40000    90.00000    45.00000    41.64459
    20.50000    90.00000    45.00000    41.64459
    20.60000    90.00000    45.00000    41.64459
    20.70000    90.00000    45.00000    41.64459
    20.80000    90.00000    45.00000    41.64459
    20.90000    90.00000    45.00000    41.64459
    21.00000    90.00000    45.00000    41.64459
    21.10000    90.00000    45.00000    41.64459
    21.20000    90.00000    45.00000    41.64459
    21.30000    90.00000    45.00000    41.64459
    21.40000    90.00000    45.00000    41.64459
    21.50000    90.00000    45.00000    41.64459
    21.60000    90.00000    45.00000    41.64459
    21.70000    90.00000    45.00000    41.64459
    21.80000    90.00000    45.00000    41.64459
    21.90000    90.00000    45.00000    41.64459
    22.00000    90.00000    45.00000    41.64459
    22.10000    90.00000    45.00000    41.64459
    22.20000    90.00000    45.00000    41.64459
    22.30000    90.00000    45.00000    41.64459
    22.40000    90.00000    45.00000    41.64459
    22.50000    90.00000    45.00000    41.64459
    22.60000    90.00000    45.00000    41.64459
    22.70000    90.00000    45.00000    41.64459
    22.80000    90.00000    45.00000    41.64459
    22.90000    90.00000    45.00000    41.64459
    23.00000    90.00000    45.00000    41.64459
    23.10000    90.00000    45.00000    41.64459
    23.20000    90.00000    45.00000    41.64459
    23.30000    90.00000    45.00000    41.64459
    23.40000    90.00000    45.00000    41.64459
    23.50000    90.00000    45.00000    41.64459
    23.60000    90.00000    45.00000    41.64459
    23.70000    90.00000    45.00000    41.64459
    23.80000    90.00000    45.00000    41.64459
    23.90000    90.00000    45.00000    41.64459
    24.00000    90.00000    45.00000    41.64459
    24.10000    90.00000    45.00000    41.64459
    24.20000    90.00000    45.00000    41.64459
    24.30000    90.00000    45.00000    41.64459
    24.40000    90.00000    45.00000    41.64459
    24.50000    90.00000    45.00000    41.64459
    24.60000    90.00000    45.00000    41.64459
    24.70000    90.00000    45.00000    41.64459
    24.80000    90.00000    45.00000    41.64459
    24.90000    90.00000    45.00000    41.64459
    25.00000    90.00000    45.00000    41.64459
    25.10000    90.00000    45.00000    41.64459
    25.20000    90.00000    45.00000    41.64459
    25.30000    90.00000    45.00000    41.64459
    25.40000    90.00000    45.00000    41.64459
    25.50000    90.00000    45.00000    41.64459
    25.60000    90.00000    45.00000    41.64459
    25.70000    90.00000    45.00000    41.64459
    25.80000    90.00000    45.00000    41.64459
    25.90000    90.00000    45.00000    41.64459
    26.00000    90.00000    45.00000    41.64459
    26.10000    90.00000    45.00000    41.64459
    26.20000    90.00000    45.00000    41.64459
    26.30000    90.00000    45.00000    41.64459
    26.40000    90.00000    45.00000    41.64459
    26.50000    90.00000    45.00000    41.64459
    26.60000    90.00000    45.00000    41.64459
    26.70000    90.00000    45.00000    41.64459
    26.80000    90.00000    45.00000    41.64459
    26.90000    90.00000    45.00000    41.64459
    27.00000    90.00000    45.00000    41.64459
    27.10000    90.00000    45.00000    41.64459
    27.20000    90.00000    45.00000    41.64459
    27.30000    90.00000    45.00000    41.64459
    27.40000    90.00000    45.00000    41.64459
    27.50000    90.00000    45.00000    41.64459
    27.60000    90.00000    45.00000    41.64459
    27.70000    90.00000    45.00000    41.64459
    27.80000    90.00000    45.00000    41.64459
    27.90000    90.00000    45.00000    41.64459
    28.00000    90.00000    45.00000    41.64459
    28.10000    90.00000    45.00000    41.64459
    28.20000    90.00000    45.00000    41.64459
    28.30000    90.00000    45.00000    41.64459
    28.40000    90.00000    45.00000    41.64459
    28.50000    90.00000    45.00000    41.64459
    28.60000    90.00000    45.00000    41.64459
    28.70000    90.00000    45.00000    41.64459
    28.80000    90.00000    45.00000    41.64459
    28.90000    90.00000    45.00000    41.64459
    29.00000    90.00000    45.00000    41.64459
    29.10000    90.00000    45.00000    41.64459
    29.20000    90.00000    45.00000    41.64459
    29.30000    90.00000    45.00000    41.64459
    29.40000    90.00000    45.00000    41.64459
    29.50000    90.00000    45.00000    41.64459
    29.60000    90.00000    45.00000    41.64459
    29.70000    90.00000    45.00000    41.64459
    29.80000    90.00000    45.00000    41.64459
    29.90000    90.00000    45.00000    41.64459
    30.00000    90.00000    45.00000    41.64459
    30.10000    90.00000    45.00000    41.64459
    30.20000    90.00000    45.00000    41.64459
    30.30000    90.00000    45.00000    41.64459
    30.40000    90.00000    45.00000    41.64459
    30.50000    90.00000    45.00000    41.64459
    30.60000    90.00000    45.00000    41.64459
    30.70000    90.00000    45.00000    41.64459
    30.80000    90.00000    45.00000    41.64459
    30.90000    90.00000    45.00000    41.64459
    31.00000    90.00000    45.00000    41.64459
    31.10000    90.00000    45.00000    41.64459
    31.20000    90.00000    45.00000    41.64459
    31.30000    90.00000    45.00000    41.64459
    31.40000    90.00000    45.00000    41.64459
    31.50000    90.00000    45.00000    41.64459
    31.60000    90.00000    45.00000    41.64459
    31.70000    90.00000    45.00000    41.64459
    31.80000    90.00000    45.00000    41.64459
    31.90000    90.00000    45.00000    41.64459
    32.00000    90.00000    45.00000    41.64459
    32.10000    90.00000    45.00000    41.64459
    32.20000    90.00000    45.00000    41.64459
    32.30000    90.00000    45.00000    41.64459
    32.40000    90.00000    45.00000    41.64459
    32.50000    90.00000    45.00000    41.64459
    32.60000    90.00000    45.00000    41.64459
    32.70000    90.00000    45.00000    41.64459
    32.80000    90.00000    45.00000    41.64459
    32.90000    90.00000    45.00000    41.64459
    33.00000    90.00000    45.00000    41.64459
    33.10000    90.00000    45.00000    41.64459
    33.20000    90.00000    45.00000    41.64459
    33.30000    90.00000    45.00000    41.64459
    33.40000    90.00000    45.00000    41.64459
    33.50000    90.00000    45.00000    41.64459
    33.60000    90.00000    45.00000    41.64459
    33.70000    90.00000    45.00000    41.64459
    33.80000    90.00000    45.00000    41.64459
    33.90000    90.00000    45.00000    41.64459
    34.00000    90.00000    45.00000    41.64459
    34.10000    90.00000    45.00000    41.64459
    34.20000    90.00000    45.00000    41.64459
    34.30000    90.00000    45.00000    41.64459
    34.40000    90.00000    45.00000    41.64459
    34.50000    90.00000    45.00000    41.64459
    34.60000    90.00000    45.00000    41.64459
    34.70000    90.00000    45.00000    41.64459
    34.80000    90.00000    45.00000    41.64459
    34.90000    90.00000    45.00000    41.64459
    35.00000    90.00000    45.00000    41.64459
    35.10000    90.00000    45.00000    41.64459
    35.20000    90.00000    45.00000    41.64459
    35.30000    90.00000    45.00000    41.64459
    35.40000    90.00000    45.00000    41.64459
    35.50000    90.00000    45.00000    41.64459
    35.60000    90.00000    45.00000    41.64459
    35.70000    90.00000    45.00000    41.64459
    35.80000    90.00000    45.00000    41.64459
    35.90000    90.00000    45.00000    41.64459
    36.00000    90.00000    45.00000    41.64459
    36.10000    90.00000    45.00000    41.64459
    36.20000    90.00000    45.00000    41.64459
    36.30000    90.00000    45.00000    41.64459
    36.40000    90.00000    45.00000    41.64459
    36.50000    90.00000    45.00000    41.64459
    36.60000    90.00000    45.00000    41.64459
    36.70000    90.00000    45.00000    41.64459
    36.80000    90.00000    45.00000    41.64459
    36.90000    90.00000    45.00000    41.64459
    37.00000    90.00000    45.00000    41.64459
    37.10000    90.00000    45.00000    41.64459
    37.20000    90.00000    45.00000    41.64459
    37.30000    90.00000    45.00000    41.64459
    37.40000    90.00000    45.00000    41.64459
    37.50000    90.00000    45.00000    41.64459
    37.60000    90.00000    45.00000    41.64459
    37.70000    90.00000    45.00000    41.64459
    37.80000    90.00000    45.00000    41.64459
    37.90000    90.00000    45.00000    41.64459
    38.00000    90.00000    45.00000    41.64459
    38.10000    90.00000    45.00000    41.64459
    38.20000    90.00000    45.00000    41.64459
    38.30000    90.00000    45.00000    41.64459
    38.40000    90.00000    45.00000    41.64459
    38.50000    90.00000    45.00000    41.64459
    38.60000    90.00000    45.00000    41.64459
    38.70000    90.00000    45.00000    41.64459
    38.80000    90.00000    45.00000    41.64459
    38.90000    90.00000    45.00000    41.64459
    39.00000    90.00000    45.00000    41.64459
    39.10000    90.00000    45.00000    41.64459
    39.20000    90.00000    45.00000    41.64459
    39.30000    90.00000    45.00000    41.64459
    39.40000    90.00000    45.00000    41.64459
    39.50000    90.00000    45.00000    41.64459
    39.60000    90.00000    45.00000    41.64459
    39.70000    90.00000    45.00000    41.64459
    39.80000    90.00000    45.00000    41.64459
    39.90000    90.00000    45.00000    41.64459
    40.00000    90.00000    45.00000    41.64459
