 # applied field (T), theta (degree), phi (degree), abs for RE 1-2
     0.00000     0.00000     0.00000     4.72536     0.00000     0.00000     0.00000
     0.10000     0.11641   360.00000     4.72536     0.00000     0.00000     0.00000
     0.20000     0.27067   360.00000     4.72535     0.00000     0.00000     0.00000
     0.30000     0.38709   360.00000     4.72535     0.00000     0.00000     0.00000
     0.40000     0.50351   360.00000     4.72535     0.00000     0.00000     0.00000
     0.50000     0.65779   360.00000     4.72534     0.00000     0.00000     0.00000
     0.60000     0.77422   360.00000     4.72534     0.00000     0.00000     0.00000
     0.70000     0.89066   360.00000     4.72533     0.00000     0.00000     0.00000
     0.80000     1.04497   360.00000     4.72532     0.00000     0.00000     0.00000
     0.90000     1.16143   360.00000     4.72532     0.00000     0.00000     0.00000
     1.00000     1.27791   360.00000     4.72531     0.00000     0.00000     0.00000
     1.10000     1.43227   360.00000     4.72530     0.00000     0.00000     0.00000
     1.20000     1.54877   360.00000     4.72529     0.00000     0.00000     0.00000
     1.30000     1.66529   360.00000     4.72527     0.00000     0.00000     0.00000
     1.40000     1.81972   360.00000     4.72526     0.00000     0.00000     0.00000
     1.50000     1.93628   360.00000     4.72524     0.00000     0.00000     0.00000
     1.60000     2.05286   360.00000     4.72523     0.00000     0.00000     0.00000
     1.70000     2.20737   360.00000     4.72521     0.00000     0.00000     0.00000
     1.80000     2.32400   360.00000     4.72520     0.00000     0.00000     0.00000
     1.90000     2.44064   360.00000     4.72518     0.00000     0.00000     0.00000
     2.00000     2.59526   360.00000     4.72516     0.00000     0.00000     0.00000
     2.10000     2.71196   360.00000     4.72514     0.00000     0.00000     0.00000
     2.20000     2.86666   360.00000     4.72511     0.00000     0.00000     0.00000
     2.30000     2.98343   360.00000     4.72509     0.00000     0.00000     0.00000
     2.40000     3.10022   360.00000     4.72507     0.00000     0.00000     0.00000
     2.50000     3.25504   360.00000     4.72504     0.00000     0.00000     0.00000
     2.60000     3.37192   360.00000     4.72502     0.00000     0.00000     0.00000
     2.70000     3.48882   360.00000     4.72499     0.00000     0.00000     0.00000
     2.80000     3.64379   360.00000     4.72496     0.00000     0.00000     0.00000
     2.90000     3.76077   360.00000     4.72494     0.00000     0.00000     0.00000
     3.00000     3.87779   360.00000     4.72491     0.00000     0.00000     0.00000
     3.10000     4.03292   360.00000     4.72487     0.00000     0.00000     0.00000
     3.20000     4.15003   360.00000     4.72484     0.00000     0.00000     0.00000
     3.30000     4.26719   360.00000     4.72482     0.00000     0.00000     0.00000
     3.40000     4.42249   360.00000     4.72478     0.00000     0.00000     0.00000
     3.50000     4.53975   360.00000     4.72474     0.00000     0.00000     0.00000
     3.60000     4.65704   360.00000     4.72471     0.00000     0.00000     0.00000
     3.70000     4.81255   360.00000     4.72467     0.00000     0.00000     0.00000
     3.80000     4.92995   360.00000     4.72463     0.00000     0.00000     0.00000
     3.90000     5.04740   360.00000     4.72460     0.00000     0.00000     0.00000
     4.00000     5.20312   360.00000     4.72455     0.00000     0.00000     0.00000
     4.10000     5.32068   360.00000     4.72452     0.00000     0.00000     0.00000
     4.20000     5.43830   360.00000     4.72448     0.00000     0.00000     0.00000
     4.30000     5.59425   360.00000     4.72443     0.00000     0.00000     0.00000
     4.40000     5.71200   360.00000     4.72439     0.00000     0.00000     0.00000
     4.50000     5.82980   360.00000     4.72435     0.00000     0.00000     0.00000
     4.60000     5.98599   360.00000     4.72430     0.00000     0.00000     0.00000
     4.70000     6.10393   360.00000     4.72425     0.00000     0.00000     0.00000
     4.80000     6.22192   360.00000     4.72421     0.00000     0.00000     0.00000
     4.90000     6.33998   360.00000     4.72417     0.00000     0.00000     0.00000
     5.00000     6.49652   360.00000     4.72411     0.00000     0.00000     0.00000
     5.10000     6.61472   360.00000     4.72406     0.00000     0.00000     0.00000
     5.20000     6.73299   360.00000     4.72402     0.00000     0.00000     0.00000
     5.30000     6.88981   360.00000     4.72395     0.00000     0.00000     0.00000
     5.40000     7.00824   360.00000     4.72391     0.00000     0.00000     0.00000
     5.50000     7.12673   360.00000     4.72386     0.00000     0.00000     0.00000
     5.60000     7.28385   360.00000     4.72379     0.00000     0.00000     0.00000
     5.70000     7.40251   360.00000     4.72374     0.00000     0.00000     0.00000
     5.80000     7.52124   360.00000     4.72369     0.00000     0.00000     0.00000
     5.90000     7.67868   360.00000     4.72362     0.00000     0.00000     0.00000
     6.00000     7.79758   360.00000     4.72357     0.00000     0.00000     0.00000
     6.10000     7.91656   360.00000     4.72351     0.00000     0.00000     0.00000
     6.20000     8.07435   360.00000     4.72344     0.00000     0.00000     0.00000
     6.30000     8.19351   360.00000     4.72338     0.00000     0.00000     0.00000
     6.40000     8.31274   360.00000     4.72333     0.00000     0.00000     0.00000
     6.50000     8.47088   360.00000     4.72325     0.00000     0.00000     0.00000
     6.60000     8.59031   360.00000     4.72319     0.00000     0.00000     0.00000
     6.70000     8.70983   360.00000     4.72313     0.00000     0.00000     0.00000
     6.80000     8.82943   360.00000     4.72307     0.00000     0.00000     0.00000
     6.90000     8.98805   360.00000     4.72299     0.00000     0.00000     0.00000
     7.00000     9.10786   360.00000     4.72293     0.00000     0.00000     0.00000
     7.10000     9.22775   360.00000     4.72286     0.00000     0.00000     0.00000
     7.20000     9.38677   360.00000     4.72278     0.00000     0.00000     0.00000
     7.30000     9.50687   360.00000     4.72271     0.00000     0.00000     0.00000
     7.40000     9.62707   360.00000     4.72265     0.00000     0.00000     0.00000
     7.50000     9.78650   360.00000     4.72256     0.00000     0.00000     0.00000
     7.60000     9.90692   360.00000     4.72249     0.00000     0.00000     0.00000
     7.70000    10.02743   360.00000     4.72242     0.00000     0.00000     0.00000
     7.80000    10.18729   360.00000     4.72233     0.00000     0.00000     0.00000
     7.90000    10.30804   360.00000     4.72226     0.00000     0.00000     0.00000
     8.00000    10.42889   360.00000     4.72219     0.00000     0.00000     0.00000
     8.10000    10.54984   360.00000     4.72212     0.00000     0.00000     0.00000
     8.20000    10.71028   360.00000     4.72202     0.00000     0.00000     0.00000
     8.30000    10.83147   360.00000     4.72195     0.00000     0.00000     0.00000
     8.40000    10.95277   360.00000     4.72187     0.00000     0.00000     0.00000
     8.50000    11.11368   360.00000     4.72178     0.00000     0.00000     0.00000
     8.60000    11.23523   360.00000     4.72170     0.00000     0.00000     0.00000
     8.70000    11.35689   360.00000     4.72162     0.00000     0.00000     0.00000
     8.80000    11.47866   360.00000     4.72154     0.00000     0.00000     0.00000
     8.90000    11.64021   360.00000     4.72144     0.00000     0.00000     0.00000
     9.00000    11.76225   360.00000     4.72136     0.00000     0.00000     0.00000
     9.10000    11.88440   360.00000     4.72128     0.00000     0.00000     0.00000
     9.20000    12.04645   360.00000     4.72117     0.00000     0.00000     0.00000
     9.30000    12.16888   360.00000     4.72109     0.00000     0.00000     0.00000
     9.40000    12.29142   360.00000     4.72100     0.00000     0.00000     0.00000
     9.50000    12.41408   360.00000     4.72092     0.00000     0.00000     0.00000
     9.60000    12.57683   360.00000     4.72081     0.00000     0.00000     0.00000
     9.70000    12.69978   360.00000     4.72072     0.00000     0.00000     0.00000
     9.80000    12.82285   360.00000     4.72063     0.00000     0.00000     0.00000
     9.90000    12.94605   360.00000     4.72055     0.00000     0.00000     0.00000
    10.00000    13.10952   360.00000     4.72043     0.00000     0.00000     0.00000
    10.10000    13.23301   360.00000     4.72034     0.00000     0.00000     0.00000
    10.20000    13.35664   360.00000     4.72025     0.00000     0.00000     0.00000
    10.30000    13.48040   360.00000     4.72016     0.00000     0.00000     0.00000
    10.40000    13.64461   360.00000     4.72004     0.00000     0.00000     0.00000
    10.50000    13.76868   360.00000     4.71995     0.00000     0.00000     0.00000
    10.60000    13.89288   360.00000     4.71985     0.00000     0.00000     0.00000
    10.70000    14.05769   360.00000     4.71973     0.00000     0.00000     0.00000
    10.80000    14.18221   360.00000     4.71963     0.00000     0.00000     0.00000
    10.90000    14.30687   360.00000     4.71953     0.00000     0.00000     0.00000
    11.00000    14.43167   360.00000     4.71944     0.00000     0.00000     0.00000
    11.10000    14.59729   360.00000     4.71931     0.00000     0.00000     0.00000
    11.20000    14.72242   360.00000     4.71921     0.00000     0.00000     0.00000
    11.30000    14.84770   360.00000     4.71911     0.00000     0.00000     0.00000
    11.40000    14.97312   360.00000     4.71901     0.00000     0.00000     0.00000
    11.50000    15.09869   360.00000     4.71891     0.00000     0.00000     0.00000
    11.60000    15.26533   360.00000     4.71877     0.00000     0.00000     0.00000
    11.70000    15.39125   360.00000     4.71867     0.00000     0.00000     0.00000
    11.80000    15.51732   360.00000     4.71857     0.00000     0.00000     0.00000
    11.90000    15.64354   360.00000     4.71846     0.00000     0.00000     0.00000
    12.00000    15.81105   360.00000     4.71832     0.00000     0.00000     0.00000
    12.10000    15.93763   360.00000     4.71822     0.00000     0.00000     0.00000
    12.20000    16.06437   360.00000     4.71811     0.00000     0.00000     0.00000
    12.30000    16.19126   360.00000     4.71800     0.00000     0.00000     0.00000
    12.40000    16.35968   360.00000     4.71786     0.00000     0.00000     0.00000
    12.50000    16.48694   360.00000     4.71775     0.00000     0.00000     0.00000
    12.60000    16.61437   360.00000     4.71764     0.00000     0.00000     0.00000
    12.70000    16.74196   360.00000     4.71752     0.00000     0.00000     0.00000
    12.80000    16.86971   360.00000     4.71741     0.00000     0.00000     0.00000
    12.90000    17.03929   360.00000     4.71726     0.00000     0.00000     0.00000
    13.00000    17.16743   360.00000     4.71715     0.00000     0.00000     0.00000
    13.10000    17.29574   360.00000     4.71704     0.00000     0.00000     0.00000
    13.20000    17.42422   360.00000     4.71692     0.00000     0.00000     0.00000
    13.30000    17.59476   360.00000     4.71677     0.00000     0.00000     0.00000
    13.40000    17.72364   360.00000     4.71665     0.00000     0.00000     0.00000
    13.50000    17.85269   360.00000     4.71653     0.00000     0.00000     0.00000
    13.60000    17.98192   360.00000     4.71641     0.00000     0.00000     0.00000
    13.70000    18.11133   360.00000     4.71629     0.00000     0.00000     0.00000
    13.80000    18.28311   360.00000     4.71613     0.00000     0.00000     0.00000
    13.90000    18.41293   360.00000     4.71601     0.00000     0.00000     0.00000
    14.00000    18.54293   360.00000     4.71589     0.00000     0.00000     0.00000
    14.10000    18.67311   360.00000     4.71577     0.00000     0.00000     0.00000
    14.20000    18.80348   360.00000     4.71564     0.00000     0.00000     0.00000
    14.30000    18.97655   360.00000     4.71548     0.00000     0.00000     0.00000
    14.40000    19.10735   360.00000     4.71536     0.00000     0.00000     0.00000
    14.50000    19.23833   360.00000     4.71523     0.00000     0.00000     0.00000
    14.60000    19.36951   360.00000     4.71510     0.00000     0.00000     0.00000
    14.70000    19.50087   360.00000     4.71497     0.00000     0.00000     0.00000
    14.80000    19.63242   360.00000     4.71485     0.00000     0.00000     0.00000
    14.90000    19.80709   360.00000     4.71468     0.00000     0.00000     0.00000
    15.00000    19.93909   360.00000     4.71455     0.00000     0.00000     0.00000
    15.10000    20.07129   360.00000     4.71442     0.00000     0.00000     0.00000
    15.20000    20.20369   360.00000     4.71428     0.00000     0.00000     0.00000
    15.30000    20.33628   360.00000     4.71415     0.00000     0.00000     0.00000
    15.40000    20.51234   360.00000     4.71398     0.00000     0.00000     0.00000
    15.50000    20.64540   360.00000     4.71384     0.00000     0.00000     0.00000
    15.60000    20.77866   360.00000     4.71371     0.00000     0.00000     0.00000
    15.70000    20.91213   360.00000     4.71357     0.00000     0.00000     0.00000
    15.80000    21.04580   360.00000     4.71344     0.00000     0.00000     0.00000
    15.90000    21.17968   360.00000     4.71330     0.00000     0.00000     0.00000
    16.00000    21.35745   360.00000     4.71312     0.00000     0.00000     0.00000
    16.10000    21.49181   360.00000     4.71298     0.00000     0.00000     0.00000
    16.20000    21.62638   360.00000     4.71284     0.00000     0.00000     0.00000
    16.30000    21.76117   360.00000     4.71270     0.00000     0.00000     0.00000
    16.40000    21.89617   360.00000     4.71256     0.00000     0.00000     0.00000
    16.50000    22.03138   360.00000     4.71242     0.00000     0.00000     0.00000
    16.60000    22.16681   360.00000     4.71228     0.00000     0.00000     0.00000
    16.70000    22.34665   360.00000     4.71209     0.00000     0.00000     0.00000
    16.80000    22.48259   360.00000     4.71194     0.00000     0.00000     0.00000
    16.90000    22.61874   360.00000     4.71180     0.00000     0.00000     0.00000
    17.00000    22.75512   360.00000     4.71165     0.00000     0.00000     0.00000
    17.10000    22.89172   360.00000     4.71151     0.00000     0.00000     0.00000
    17.20000    23.02854   360.00000     4.71136     0.00000     0.00000     0.00000
    17.30000    23.16559   360.00000     4.71121     0.00000     0.00000     0.00000
    17.40000    23.30286   360.00000     4.71107     0.00000     0.00000     0.00000
    17.50000    23.48518   360.00000     4.71087     0.00000     0.00000     0.00000
    17.60000    23.62299   360.00000     4.71072     0.00000     0.00000     0.00000
    17.70000    23.76103   360.00000     4.71057     0.00000     0.00000     0.00000
    17.80000    23.89930   360.00000     4.71042     0.00000     0.00000     0.00000
    17.90000    24.03780   360.00000     4.71027     0.00000     0.00000     0.00000
    18.00000    24.17654   360.00000     4.71012     0.00000     0.00000     0.00000
    18.10000    24.31551   360.00000     4.70996     0.00000     0.00000     0.00000
    18.20000    24.45472   360.00000     4.70981     0.00000     0.00000     0.00000
    18.30000    24.63963   360.00000     4.70961     0.00000     0.00000     0.00000
    18.40000    24.77940   360.00000     4.70945     0.00000     0.00000     0.00000
    18.50000    24.91941   360.00000     4.70930     0.00000     0.00000     0.00000
    18.60000    25.05967   360.00000     4.70914     0.00000     0.00000     0.00000
    18.70000    25.20017   360.00000     4.70898     0.00000     0.00000     0.00000
    18.80000    25.34091   360.00000     4.70882     0.00000     0.00000     0.00000
    18.90000    25.48190   360.00000     4.70866     0.00000     0.00000     0.00000
    19.00000    25.62314   360.00000     4.70851     0.00000     0.00000     0.00000
    19.10000    25.76463   360.00000     4.70835     0.00000     0.00000     0.00000
    19.20000    25.90638   360.00000     4.70818     0.00000     0.00000     0.00000
    19.30000    26.04837   360.00000     4.70802     0.00000     0.00000     0.00000
    19.40000    26.23700   360.00000     4.70781     0.00000     0.00000     0.00000
    19.50000    26.37959   360.00000     4.70765     0.00000     0.00000     0.00000
    19.60000    26.52243   360.00000     4.70748     0.00000     0.00000     0.00000
    19.70000    26.66553   360.00000     4.70732     0.00000     0.00000     0.00000
    19.80000    26.80890   360.00000     4.70716     0.00000     0.00000     0.00000
    19.90000    26.95252   360.00000     4.70699     0.00000     0.00000     0.00000
    20.00000    27.09640   360.00000     4.70682     0.00000     0.00000     0.00000
    20.10000    27.24055   360.00000     4.70666     0.00000     0.00000     0.00000
    20.20000    27.38497   360.00000     4.70649     0.00000     0.00000     0.00000
    20.30000    27.52965   360.00000     4.70632     0.00000     0.00000     0.00000
    20.40000    27.67459   360.00000     4.70615     0.00000     0.00000     0.00000
    20.50000    27.81981   360.00000     4.70599     0.00000     0.00000     0.00000
    20.60000    27.96530   360.00000     4.70582     0.00000     0.00000     0.00000
    20.70000    28.11105   360.00000     4.70565     0.00000     0.00000     0.00000
    20.80000    28.25709   360.00000     4.70547     0.00000     0.00000     0.00000
    20.90000    28.40339   360.00000     4.70530     0.00000     0.00000     0.00000
    21.00000    28.54997   360.00000     4.70513     0.00000     0.00000     0.00000
    21.10000    28.69683   360.00000     4.70496     0.00000     0.00000     0.00000
    21.20000    28.89197   360.00000     4.70473     0.00000     0.00000     0.00000
    21.30000    29.03948   360.00000     4.70456     0.00000     0.00000     0.00000
    21.40000    29.18727   360.00000     4.70438     0.00000     0.00000     0.00000
    21.50000    29.33535   360.00000     4.70421     0.00000     0.00000     0.00000
    21.60000    29.48371   360.00000     4.70403     0.00000     0.00000     0.00000
    21.70000    29.63235   360.00000     4.70385     0.00000     0.00000     0.00000
    21.80000    29.78128   360.00000     4.70368     0.00000     0.00000     0.00000
    21.90000    29.93050   360.00000     4.70350     0.00000     0.00000     0.00000
    22.00000    30.08001   360.00000     4.70332     0.00000     0.00000     0.00000
    22.10000    30.22981   360.00000     4.70314     0.00000     0.00000     0.00000
    22.20000    30.37991   360.00000     4.70296     0.00000     0.00000     0.00000
    22.30000    30.53030   360.00000     4.70278     0.00000     0.00000     0.00000
    22.40000    30.68098   360.00000     4.70260     0.00000     0.00000     0.00000
    22.50000    30.83196   360.00000     4.70242     0.00000     0.00000     0.00000
    22.60000    30.98324   360.00000     4.70224     0.00000     0.00000     0.00000
    22.70000    31.13482   360.00000     4.70206     0.00000     0.00000     0.00000
    22.80000    31.28670   360.00000     4.70187     0.00000     0.00000     0.00000
    22.90000    31.43888   360.00000     4.70169     0.00000     0.00000     0.00000
    23.00000    31.59136   360.00000     4.70151     0.00000     0.00000     0.00000
    23.10000    31.74415   360.00000     4.70132     0.00000     0.00000     0.00000
    23.20000    31.89725   360.00000     4.70114     0.00000     0.00000     0.00000
    23.30000    32.05065   360.00000     4.70095     0.00000     0.00000     0.00000
    23.40000    32.20437   360.00000     4.70076     0.00000     0.00000     0.00000
    23.50000    32.35839   360.00000     4.70058     0.00000     0.00000     0.00000
    23.60000    32.51273   360.00000     4.70039     0.00000     0.00000     0.00000
    23.70000    32.66738   360.00000     4.70020     0.00000     0.00000     0.00000
    23.80000    32.82235   360.00000     4.70001     0.00000     0.00000     0.00000
    23.90000    32.92696   360.00000     4.69988     0.00000     0.00000     0.00000
    24.00000    33.08245   360.00000     4.69969     0.00000     0.00000     0.00000
    24.10000    33.23827   360.00000     4.69950     0.00000     0.00000     0.00000
    24.20000    33.39440   360.00000     4.69931     0.00000     0.00000     0.00000
    24.30000    33.55086   360.00000     4.69912     0.00000     0.00000     0.00000
    24.40000    33.70764   360.00000     4.69893     0.00000     0.00000     0.00000
    24.50000    33.86474   360.00000     4.69874     0.00000     0.00000     0.00000
    24.60000    34.02217   360.00000     4.69855     0.00000     0.00000     0.00000
    24.70000    34.17993   360.00000     4.69835     0.00000     0.00000     0.00000
    24.80000    34.33801   360.00000     4.69816     0.00000     0.00000     0.00000
    24.90000    34.49643   360.00000     4.69797     0.00000     0.00000     0.00000
    25.00000    34.65518   360.00000     4.69777     0.00000     0.00000     0.00000
    25.10000    34.81426   360.00000     4.69758     0.00000     0.00000     0.00000
    25.20000    34.97367   360.00000     4.69738     0.00000     0.00000     0.00000
    25.30000    35.13342   360.00000     4.69718     0.00000     0.00000     0.00000
    25.40000    35.29351   360.00000     4.69699     0.00000     0.00000     0.00000
    25.50000    35.45394   360.00000     4.69679     0.00000     0.00000     0.00000
    25.60000    35.56222   360.00000     4.69665     0.00000     0.00000     0.00000
    25.70000    35.72322   360.00000     4.69646     0.00000     0.00000     0.00000
    25.80000    35.88456   360.00000     4.69626     0.00000     0.00000     0.00000
    25.90000    36.04624   360.00000     4.69606     0.00000     0.00000     0.00000
    26.00000    36.20827   360.00000     4.69586     0.00000     0.00000     0.00000
    26.10000    36.37065   360.00000     4.69566     0.00000     0.00000     0.00000
    26.20000    36.53338   360.00000     4.69546     0.00000     0.00000     0.00000
    26.30000    36.69646   360.00000     4.69526     0.00000     0.00000     0.00000
    26.40000    36.85989   360.00000     4.69506     0.00000     0.00000     0.00000
    26.50000    37.02367   360.00000     4.69486     0.00000     0.00000     0.00000
    26.60000    37.18781   360.00000     4.69465     0.00000     0.00000     0.00000
    26.70000    37.29857   360.00000     4.69451     0.00000     0.00000     0.00000
    26.80000    37.46331   360.00000     4.69431     0.00000     0.00000     0.00000
    26.90000    37.62840   360.00000     4.69411     0.00000     0.00000     0.00000
    27.00000    37.79385   360.00000     4.69390     0.00000     0.00000     0.00000
    27.10000    37.95967   360.00000     4.69370     0.00000     0.00000     0.00000
    27.20000    38.12585   360.00000     4.69349     0.00000     0.00000     0.00000
    27.30000    38.29239   360.00000     4.69329     0.00000     0.00000     0.00000
    27.40000    38.45930   360.00000     4.69308     0.00000     0.00000     0.00000
    27.50000    38.62658   360.00000     4.69288     0.00000     0.00000     0.00000
    27.60000    38.73945   360.00000     4.69273     0.00000     0.00000     0.00000
    27.70000    38.90734   360.00000     4.69252     0.00000     0.00000     0.00000
    27.80000    39.07561   360.00000     4.69232     0.00000     0.00000     0.00000
    27.90000    39.24425   360.00000     4.69211     0.00000     0.00000     0.00000
    28.00000    39.41327   360.00000     4.69190     0.00000     0.00000     0.00000
    28.10000    39.58267   360.00000     4.69169     0.00000     0.00000     0.00000
    28.20000    39.75244   360.00000     4.69148     0.00000     0.00000     0.00000
    28.30000    39.86698   360.00000     4.69134     0.00000     0.00000     0.00000
    28.40000    40.03738   360.00000     4.69113     0.00000     0.00000     0.00000
    28.50000    40.20818   360.00000     4.69092     0.00000     0.00000     0.00000
    28.60000    40.37935   360.00000     4.69070     0.00000     0.00000     0.00000
    28.70000    40.55091   360.00000     4.69049     0.00000     0.00000     0.00000
    28.80000    40.72286   360.00000     4.69028     0.00000     0.00000     0.00000
    28.90000    40.83885   360.00000     4.69013     0.00000     0.00000     0.00000
    29.00000    41.01145   360.00000     4.68992     0.00000     0.00000     0.00000
    29.10000    41.18444   360.00000     4.68971     0.00000     0.00000     0.00000
    29.20000    41.35783   360.00000     4.68949     0.00000     0.00000     0.00000
    29.30000    41.53161   360.00000     4.68928     0.00000     0.00000     0.00000
    29.40000    41.70578   360.00000     4.68906     0.00000     0.00000     0.00000
    29.50000    41.82327   360.00000     4.68892     0.00000     0.00000     0.00000
    29.60000    41.99811   360.00000     4.68870     0.00000     0.00000     0.00000
    29.70000    42.17335   360.00000     4.68848     0.00000     0.00000     0.00000
    29.80000    42.34899   360.00000     4.68827     0.00000     0.00000     0.00000
    29.90000    42.52504   360.00000     4.68805     0.00000     0.00000     0.00000
    30.00000    42.70150   360.00000     4.68783     0.00000     0.00000     0.00000
    30.10000    42.82050   360.00000     4.68768     0.00000     0.00000     0.00000
    30.20000    42.99764   360.00000     4.68746     0.00000     0.00000     0.00000
    30.30000    43.17519   360.00000     4.68725     0.00000     0.00000     0.00000
    30.40000    43.35315   360.00000     4.68703     0.00000     0.00000     0.00000
    30.50000    43.53152   360.00000     4.68681     0.00000     0.00000     0.00000
    30.60000    43.65181   360.00000     4.68666     0.00000     0.00000     0.00000
    30.70000    43.83087   360.00000     4.68644     0.00000     0.00000     0.00000
    30.80000    44.01036   360.00000     4.68622     0.00000     0.00000     0.00000
    30.90000    44.19026   360.00000     4.68599     0.00000     0.00000     0.00000
    31.00000    44.37059   360.00000     4.68577     0.00000     0.00000     0.00000
    31.10000    44.49218   360.00000     4.68562     0.00000     0.00000     0.00000
    31.20000    44.67321   360.00000     4.68540     0.00000     0.00000     0.00000
    31.30000    44.85467   360.00000     4.68517     0.00000     0.00000     0.00000
    31.40000    45.03656   360.00000     4.68495     0.00000     0.00000     0.00000
    31.50000    45.21888   360.00000     4.68473     0.00000     0.00000     0.00000
    31.60000    45.34180   360.00000     4.68457     0.00000     0.00000     0.00000
    31.70000    45.52483   360.00000     4.68435     0.00000     0.00000     0.00000
    31.80000    45.70831   360.00000     4.68412     0.00000     0.00000     0.00000
    31.90000    45.89221   360.00000     4.68390     0.00000     0.00000     0.00000
    32.00000    46.07656   360.00000     4.68367     0.00000     0.00000     0.00000
    32.10000    46.20083   360.00000     4.68352     0.00000     0.00000     0.00000
    32.20000    46.38591   360.00000     4.68329     0.00000     0.00000     0.00000
    32.30000    46.57143   360.00000     4.68306     0.00000     0.00000     0.00000
    32.40000    46.75740   360.00000     4.68284     0.00000     0.00000     0.00000
    32.50000    46.88275   360.00000     4.68268     0.00000     0.00000     0.00000
    32.60000    47.06946   360.00000     4.68245     0.00000     0.00000     0.00000
    32.70000    47.25662   360.00000     4.68222     0.00000     0.00000     0.00000
    32.80000    47.44423   360.00000     4.68199     0.00000     0.00000     0.00000
    32.90000    47.63229   360.00000     4.68176     0.00000     0.00000     0.00000
    33.00000    47.75904   360.00000     4.68160     0.00000     0.00000     0.00000
    33.10000    47.94786   360.00000     4.68137     0.00000     0.00000     0.00000
    33.20000    48.13714   360.00000     4.68114     0.00000     0.00000     0.00000
    33.30000    48.32687   360.00000     4.68091     0.00000     0.00000     0.00000
    33.40000    48.45474   360.00000     4.68075     0.00000     0.00000     0.00000
    33.50000    48.64524   360.00000     4.68052     0.00000     0.00000     0.00000
    33.60000    48.83621   360.00000     4.68029     0.00000     0.00000     0.00000
    33.70000    49.02764   360.00000     4.68005     0.00000     0.00000     0.00000
    33.80000    49.15664   360.00000     4.67989     0.00000     0.00000     0.00000
    33.90000    49.34885   360.00000     4.67966     0.00000     0.00000     0.00000
    34.00000    49.54153   360.00000     4.67943     0.00000     0.00000     0.00000
    34.10000    49.73468   360.00000     4.67919     0.00000     0.00000     0.00000
    34.20000    49.86482   360.00000     4.67903     0.00000     0.00000     0.00000
    34.30000    50.05877   360.00000     4.67879     0.00000     0.00000     0.00000
    34.40000    50.25318   360.00000     4.67856     0.00000     0.00000     0.00000
    34.50000    50.44808   360.00000     4.67832     0.00000     0.00000     0.00000
    34.60000    50.64346   360.00000     4.67808     0.00000     0.00000     0.00000
    34.70000    50.77508   360.00000     4.67792     0.00000     0.00000     0.00000
    34.80000    50.97126   360.00000     4.67768     0.00000     0.00000     0.00000
    34.90000    51.16793   360.00000     4.67745     0.00000     0.00000     0.00000
    35.00000    51.36508   360.00000     4.67721     0.00000     0.00000     0.00000
    35.10000    51.49788   360.00000     4.67704     0.00000     0.00000     0.00000
    35.20000    51.69585   360.00000     4.67680     0.00000     0.00000     0.00000
    35.30000    51.89431   360.00000     4.67656     0.00000     0.00000     0.00000
    35.40000    52.09326   360.00000     4.67633     0.00000     0.00000     0.00000
    35.50000    52.22725   360.00000     4.67616     0.00000     0.00000     0.00000
    35.60000    52.42703   360.00000     4.67592     0.00000     0.00000     0.00000
    35.70000    52.62730   360.00000     4.67568     0.00000     0.00000     0.00000
    35.80000    52.82807   360.00000     4.67544     0.00000     0.00000     0.00000
    35.90000    52.96327   360.00000     4.67527     0.00000     0.00000     0.00000
    36.00000    53.16488   360.00000     4.67503     0.00000     0.00000     0.00000
    36.10000    53.36698   360.00000     4.67478     0.00000     0.00000     0.00000
    36.20000    53.56960   360.00000     4.67454     0.00000     0.00000     0.00000
    36.30000    53.77272   360.00000     4.67430     0.00000     0.00000     0.00000
    36.40000    53.90948   360.00000     4.67413     0.00000     0.00000     0.00000
    36.50000    54.11345   360.00000     4.67389     0.00000     0.00000     0.00000
    36.60000    54.31792   360.00000     4.67364     0.00000     0.00000     0.00000
    36.70000    54.52291   360.00000     4.67340     0.00000     0.00000     0.00000
    36.80000    54.66092   360.00000     4.67323     0.00000     0.00000     0.00000
    36.90000    54.86677   360.00000     4.67298     0.00000     0.00000     0.00000
    37.00000    55.07313   360.00000     4.67274     0.00000     0.00000     0.00000
    37.10000    55.28001   360.00000     4.67249     0.00000     0.00000     0.00000
    37.20000    55.48741   360.00000     4.67225     0.00000     0.00000     0.00000
    37.30000    55.62702   360.00000     4.67207     0.00000     0.00000     0.00000
    37.40000    55.83528   360.00000     4.67183     0.00000     0.00000     0.00000
    37.50000    56.04408   360.00000     4.67158     0.00000     0.00000     0.00000
    37.60000    56.25339   360.00000     4.67133     0.00000     0.00000     0.00000
    37.70000    56.46323   360.00000     4.67108     0.00000     0.00000     0.00000
    37.80000    56.60446   360.00000     4.67091     0.00000     0.00000     0.00000
    37.90000    56.81518   360.00000     4.67066     0.00000     0.00000     0.00000
    38.00000    57.02643   360.00000     4.67042     0.00000     0.00000     0.00000
    38.10000    57.23822   360.00000     4.67017     0.00000     0.00000     0.00000
    38.20000    57.45053   360.00000     4.66992     0.00000     0.00000     0.00000
    38.30000    57.59339   360.00000     4.66974     0.00000     0.00000     0.00000
    38.40000    57.80660   360.00000     4.66949     0.00000     0.00000     0.00000
    38.50000    58.02033   360.00000     4.66924     0.00000     0.00000     0.00000
    38.60000    58.23461   360.00000     4.66899     0.00000     0.00000     0.00000
    38.70000    58.44942   360.00000     4.66874     0.00000     0.00000     0.00000
    38.80000    58.66478   360.00000     4.66849     0.00000     0.00000     0.00000
    38.90000    58.88067   360.00000     4.66824     0.00000     0.00000     0.00000
    39.00000    59.02590   360.00000     4.66807     0.00000     0.00000     0.00000
    39.10000    59.24269   360.00000     4.66782     0.00000     0.00000     0.00000
    39.20000    59.46003   360.00000     4.66756     0.00000     0.00000     0.00000
    39.30000    59.67791   360.00000     4.66731     0.00000     0.00000     0.00000
    39.40000    59.89633   360.00000     4.66706     0.00000     0.00000     0.00000
    39.50000    60.11530   360.00000     4.66681     0.00000     0.00000     0.00000
    39.60000    60.33481   360.00000     4.66656     0.00000     0.00000     0.00000
    39.70000    60.55488   360.00000     4.66630     0.00000     0.00000     0.00000
    39.80000    60.70286   360.00000     4.66613     0.00000     0.00000     0.00000
    39.90000    60.92383   360.00000     4.66588     0.00000     0.00000     0.00000
    40.00000    61.14535   360.00000     4.66562     0.00000     0.00000     0.00000
